[Header]
Data File Name	D:\助燃剂标准品检验\92#汽油\百分一92#汽-乙.qgd
Output Date	2018/4/17
Output Time	17:05:48

[MS Chromatogram]
m/z	1-1 TIC
Event Time(msec)	200
# of Points	9750
Start Time(min)	2.500
End Time(min)	34.997
Ret.Time	Absolute Intensity	Relative Intensity
2.500	1565957	9.84
2.503	595883	3.75
2.507	12068	0.08
2.510	10049	0.06
2.513	33447	0.21
2.517	76614	0.48
2.520	93296	0.59
2.523	114918	0.72
2.527	170473	1.07
2.530	219168	1.38
2.533	251835	1.58
2.537	279963	1.76
2.540	299936	1.89
2.543	307902	1.94
2.547	304541	1.91
2.550	291335	1.83
2.553	268182	1.69
2.557	237431	1.49
2.560	203073	1.28
2.563	170456	1.07
2.567	140429	0.88
2.570	113098	0.71
2.573	91817	0.58
2.577	76525	0.48
2.580	66555	0.42
2.583	59771	0.38
2.587	57955	0.36
2.590	58090	0.37
2.593	60733	0.38
2.597	66765	0.42
2.600	76341	0.48
2.603	91976	0.58
2.607	120387	0.76
2.610	161978	1.02
2.613	222104	1.40
2.617	308263	1.94
2.620	419019	2.63
2.623	547371	3.44
2.627	692443	4.35
2.630	846047	5.32
2.633	988142	6.21
2.637	1105936	6.95
2.640	1192255	7.49
2.643	1237012	7.77
2.647	1241736	7.80
2.650	1221884	7.68
2.653	1192229	7.49
2.657	1176587	7.39
2.660	1200722	7.55
2.663	1279563	8.04
2.667	1431118	8.99
2.670	1669272	10.49
2.673	1985580	12.48
2.677	2361916	14.84
2.680	2763491	17.37
2.683	3139581	19.73
2.687	3452680	21.70
2.690	3670195	23.07
2.693	3779920	23.76
2.697	3766613	23.67
2.700	3596607	22.61
2.703	3297617	20.73
2.707	2905183	18.26
2.710	2437864	15.32
2.713	1957625	12.30
2.717	1513759	9.51
2.720	1128582	7.09
2.723	821054	5.16
2.727	592760	3.73
2.730	430797	2.71
2.733	320336	2.01
2.737	248065	1.56
2.740	202673	1.27
2.743	174786	1.10
2.747	160694	1.01
2.750	158080	0.99
2.753	166930	1.05
2.757	191755	1.21
2.760	234339	1.47
2.763	295233	1.86
2.767	376460	2.37
2.770	477715	3.00
2.773	592795	3.73
2.777	715346	4.50
2.780	837091	5.26
2.783	945565	5.94
2.787	1023973	6.44
2.790	1060781	6.67
2.793	1059048	6.66
2.797	1025496	6.45
2.800	965554	6.07
2.803	890305	5.60
2.807	814247	5.12
2.810	753240	4.73
2.813	726449	4.57
2.817	744330	4.68
2.820	807305	5.07
2.823	908012	5.71
2.827	1037198	6.52
2.830	1182060	7.43
2.833	1310023	8.23
2.837	1399170	8.79
2.840	1449906	9.11
2.843	1449799	9.11
2.847	1389522	8.73
2.850	1279180	8.04
2.853	1129718	7.10
2.857	959071	6.03
2.860	786977	4.95
2.863	624653	3.93
2.867	477829	3.00
2.870	355452	2.23
2.873	263087	1.65
2.877	197738	1.24
2.880	153581	0.97
2.883	127282	0.80
2.887	116238	0.73
2.890	116560	0.73
2.893	128973	0.81
2.897	153539	0.97
2.900	193610	1.22
2.903	256922	1.61
2.907	348450	2.19
2.910	471405	2.96
2.913	631193	3.97
2.917	824291	5.18
2.920	1039823	6.54
2.923	1264422	7.95
2.927	1480427	9.30
2.930	1666570	10.47
2.933	1798573	11.30
2.937	1857027	11.67
2.940	1839077	11.56
2.943	1754716	11.03
2.947	1603601	10.08
2.950	1392750	8.75
2.953	1157938	7.28
2.957	929436	5.84
2.960	721808	4.54
2.963	542766	3.41
2.967	398347	2.50
2.970	291247	1.83
2.973	216396	1.36
2.977	166612	1.05
2.980	134244	0.84
2.983	112713	0.71
2.987	99039	0.62
2.990	90162	0.57
2.993	83836	0.53
2.997	78835	0.50
3.000	75645	0.48
3.003	72511	0.46
3.007	68608	0.43
3.010	65817	0.41
3.013	63151	0.40
3.017	60391	0.38
3.020	57812	0.36
3.023	56034	0.35
3.027	55913	0.35
3.030	57627	0.36
3.033	63124	0.40
3.037	72662	0.46
3.040	89363	0.56
3.043	112705	0.71
3.047	145076	0.91
3.050	188277	1.18
3.053	241548	1.52
3.057	298735	1.88
3.060	355506	2.23
3.063	409680	2.57
3.067	460205	2.89
3.070	506152	3.18
3.073	548811	3.45
3.077	591667	3.72
3.080	638912	4.02
3.083	692992	4.36
3.087	754512	4.74
3.090	819564	5.15
3.093	885918	5.57
3.097	945427	5.94
3.100	984419	6.19
3.103	994969	6.25
3.107	975299	6.13
3.110	925848	5.82
3.113	850657	5.35
3.117	758224	4.77
3.120	657775	4.13
3.123	555321	3.49
3.127	457000	2.87
3.130	369500	2.32
3.133	298201	1.87
3.137	243988	1.53
3.140	202756	1.27
3.143	169279	1.06
3.147	143169	0.90
3.150	123826	0.78
3.153	109155	0.69
3.157	97809	0.61
3.160	88802	0.56
3.163	81147	0.51
3.167	77501	0.49
3.170	77015	0.48
3.173	77080	0.48
3.177	78689	0.49
3.180	79937	0.50
3.183	80134	0.50
3.187	80492	0.51
3.190	80817	0.51
3.193	78757	0.49
3.197	74942	0.47
3.200	71589	0.45
3.203	67488	0.42
3.207	62104	0.39
3.210	57168	0.36
3.213	51629	0.32
3.217	45829	0.29
3.220	41633	0.26
3.223	40269	0.25
3.227	39768	0.25
3.230	39795	0.25
3.233	41099	0.26
3.237	43144	0.27
3.240	47536	0.30
3.243	53829	0.34
3.247	59767	0.38
3.250	67286	0.42
3.253	76415	0.48
3.257	87172	0.55
3.260	100944	0.63
3.263	120281	0.76
3.267	145952	0.92
3.270	177970	1.12
3.273	217728	1.37
3.277	266294	1.67
3.280	321966	2.02
3.283	380965	2.39
3.287	439134	2.76
3.290	493960	3.10
3.293	538238	3.38
3.297	566130	3.56
3.300	579553	3.64
3.303	579025	3.64
3.307	560410	3.52
3.310	523428	3.29
3.313	474886	2.98
3.317	422751	2.66
3.320	368305	2.31
3.323	313236	1.97
3.327	262269	1.65
3.330	217825	1.37
3.333	180637	1.14
3.337	152539	0.96
3.340	134029	0.84
3.343	124282	0.78
3.347	123536	0.78
3.350	129709	0.82
3.353	142117	0.89
3.357	158686	1.00
3.360	178026	1.12
3.363	196555	1.24
3.367	213170	1.34
3.370	226883	1.43
3.373	233570	1.47
3.377	233525	1.47
3.380	227790	1.43
3.383	219036	1.38
3.387	205862	1.29
3.390	189016	1.19
3.393	171698	1.08
3.397	156632	0.98
3.400	143803	0.90
3.403	133700	0.84
3.407	126452	0.79
3.410	121379	0.76
3.413	120740	0.76
3.417	121348	0.76
3.420	124008	0.78
3.423	126452	0.79
3.427	128398	0.81
3.430	130520	0.82
3.433	131328	0.83
3.437	131307	0.83
3.440	131239	0.82
3.443	133342	0.84
3.447	137826	0.87
3.450	144613	0.91
3.453	155043	0.97
3.457	168797	1.06
3.460	185263	1.16
3.463	203373	1.28
3.467	221979	1.40
3.470	239533	1.51
3.473	253937	1.60
3.477	262910	1.65
3.480	266472	1.67
3.483	268482	1.69
3.487	269129	1.69
3.490	270594	1.70
3.493	274955	1.73
3.497	283035	1.78
3.500	296276	1.86
3.503	314437	1.98
3.507	338744	2.13
3.510	365908	2.30
3.513	389187	2.45
3.517	406170	2.55
3.520	414910	2.61
3.523	412897	2.60
3.527	401267	2.52
3.530	382697	2.41
3.533	356575	2.24
3.537	329175	2.07
3.540	305661	1.92
3.543	289996	1.82
3.547	288313	1.81
3.550	305549	1.92
3.553	342790	2.15
3.557	400927	2.52
3.560	479145	3.01
3.563	572208	3.60
3.567	674760	4.24
3.570	777779	4.89
3.573	867562	5.45
3.577	937058	5.89
3.580	982137	6.17
3.583	1000736	6.29
3.587	989101	6.22
3.590	945537	5.94
3.593	880796	5.54
3.597	806268	5.07
3.600	731128	4.60
3.603	661142	4.16
3.607	595617	3.74
3.610	537671	3.38
3.613	488564	3.07
3.617	442482	2.78
3.620	400010	2.51
3.623	363679	2.29
3.627	330813	2.08
3.630	301471	1.89
3.633	278824	1.75
3.637	261339	1.64
3.640	246912	1.55
3.643	236662	1.49
3.647	229376	1.44
3.650	222793	1.40
3.653	215611	1.36
3.657	208041	1.31
3.660	197855	1.24
3.663	185525	1.17
3.667	172470	1.08
3.670	156705	0.98
3.673	141106	0.89
3.677	127374	0.80
3.680	114714	0.72
3.683	102923	0.65
3.687	95014	0.60
3.690	92106	0.58
3.693	95027	0.60
3.697	109944	0.69
3.700	141163	0.89
3.703	192339	1.21
3.707	271167	1.70
3.710	383886	2.41
3.713	529771	3.33
3.717	714249	4.49
3.720	939015	5.90
3.723	1201073	7.55
3.727	1492139	9.38
3.730	1789604	11.25
3.733	2080961	13.08
3.737	2365932	14.87
3.740	2639967	16.59
3.743	2893775	18.19
3.747	3116192	19.59
3.750	3326239	20.91
3.753	3564079	22.40
3.757	3856584	24.24
3.760	4222007	26.54
3.763	4668376	29.34
3.767	5199548	32.68
3.770	5821011	36.59
3.773	6513254	40.94
3.777	7242001	45.52
3.780	8006154	50.32
3.783	8793217	55.27
3.787	9553713	60.05
3.790	10294296	64.70
3.793	11041249	69.40
3.797	11742219	73.80
3.800	12318237	77.42
3.803	12823986	80.60
3.807	13363395	83.99
3.810	13897853	87.35
3.813	14406383	90.55
3.817	14875543	93.49
3.820	15267536	95.96
3.823	15588355	97.97
3.827	15801903	99.32
3.830	15910644	100.00
3.833	15859422	99.68
3.837	15533141	97.63
3.840	14687687	92.31
3.843	12943193	81.35
3.847	10326898	64.91
3.850	7370756	46.33
3.853	4803895	30.19
3.857	3089413	19.42
3.860	2162321	13.59
3.863	1720472	10.81
3.867	1503639	9.45
3.870	1372639	8.63
3.873	1266716	7.96
3.877	1162901	7.31
3.880	1061917	6.67
3.883	967807	6.08
3.887	880467	5.53
3.890	806046	5.07
3.893	744520	4.68
3.897	688407	4.33
3.900	637626	4.01
3.903	594982	3.74
3.907	564449	3.55
3.910	544193	3.42
3.913	538244	3.38
3.917	557600	3.50
3.920	611925	3.85
3.923	712463	4.48
3.927	872797	5.49
3.930	1103238	6.93
3.933	1407637	8.85
3.937	1785506	11.22
3.940	2221198	13.96
3.943	2683875	16.87
3.947	3147759	19.78
3.950	3586439	22.54
3.953	3958477	24.88
3.957	4231077	26.59
3.960	4408256	27.71
3.963	4449905	27.97
3.967	4306591	27.07
3.970	4032222	25.34
3.973	3686645	23.17
3.977	3280831	20.62
3.980	2836545	17.83
3.983	2382921	14.98
3.987	1952654	12.27
3.990	1574142	9.89
3.993	1247983	7.84
3.997	968257	6.09
4.000	740891	4.66
4.003	567710	3.57
4.007	443186	2.79
4.010	357016	2.24
4.013	301438	1.89
4.017	273383	1.72
4.020	267121	1.68
4.023	278619	1.75
4.027	305192	1.92
4.030	341740	2.15
4.033	384207	2.41
4.037	426167	2.68
4.040	463076	2.91
4.043	492781	3.10
4.047	512925	3.22
4.050	518801	3.26
4.053	507357	3.19
4.057	481463	3.03
4.060	444250	2.79
4.063	399104	2.51
4.067	351351	2.21
4.070	302764	1.90
4.073	255960	1.61
4.077	215014	1.35
4.080	182118	1.14
4.083	154637	0.97
4.087	132895	0.84
4.090	117293	0.74
4.093	107070	0.67
4.097	99928	0.63
4.100	95964	0.60
4.103	94290	0.59
4.107	94156	0.59
4.110	95337	0.60
4.113	97647	0.61
4.117	99784	0.63
4.120	103497	0.65
4.123	110243	0.69
4.127	118556	0.75
4.130	131298	0.83
4.133	150659	0.95
4.137	177900	1.12
4.140	217536	1.37
4.143	272711	1.71
4.147	340417	2.14
4.150	421356	2.65
4.153	514404	3.23
4.157	619927	3.90
4.160	735033	4.62
4.163	851921	5.35
4.167	964005	6.06
4.170	1070907	6.73
4.173	1164021	7.32
4.177	1223437	7.69
4.180	1248113	7.84
4.183	1241232	7.80
4.187	1197052	7.52
4.190	1120783	7.04
4.193	1017241	6.39
4.197	892462	5.61
4.200	757086	4.76
4.203	621789	3.91
4.207	496423	3.12
4.210	387674	2.44
4.213	301757	1.90
4.217	237896	1.50
4.220	191521	1.20
4.223	163047	1.02
4.227	154552	0.97
4.230	163022	1.02
4.233	184029	1.16
4.237	216524	1.36
4.240	259521	1.63
4.243	309881	1.95
4.247	362889	2.28
4.250	417447	2.62
4.253	462644	2.91
4.257	491002	3.09
4.260	504488	3.17
4.263	506033	3.18
4.267	491247	3.09
4.270	459781	2.89
4.273	417733	2.63
4.277	371507	2.33
4.280	323798	2.04
4.283	280832	1.77
4.287	244939	1.54
4.290	214852	1.35
4.293	190833	1.20
4.297	171971	1.08
4.300	156486	0.98
4.303	144706	0.91
4.307	136279	0.86
4.310	129115	0.81
4.313	122656	0.77
4.317	117069	0.74
4.320	112963	0.71
4.323	110231	0.69
4.327	109487	0.69
4.330	109136	0.69
4.333	107944	0.68
4.337	105000	0.66
4.340	102392	0.64
4.343	99426	0.62
4.347	95658	0.60
4.350	90636	0.57
4.353	85658	0.54
4.357	82277	0.52
4.360	78497	0.49
4.363	75817	0.48
4.367	75811	0.48
4.370	77364	0.49
4.373	80039	0.50
4.377	85567	0.54
4.380	93145	0.59
4.383	103051	0.65
4.387	117081	0.74
4.390	136475	0.86
4.393	161772	1.02
4.397	194568	1.22
4.400	235676	1.48
4.403	286002	1.80
4.407	346027	2.17
4.410	418198	2.63
4.413	501674	3.15
4.417	592938	3.73
4.420	690747	4.34
4.423	788899	4.96
4.427	872480	5.48
4.430	930683	5.85
4.433	962474	6.05
4.437	972379	6.11
4.440	955730	6.01
4.443	903921	5.68
4.447	818624	5.15
4.450	712815	4.48
4.453	606319	3.81
4.457	510473	3.21
4.460	427872	2.69
4.463	363588	2.29
4.467	323949	2.04
4.470	314010	1.97
4.473	332808	2.09
4.477	375864	2.36
4.480	443378	2.79
4.483	529290	3.33
4.487	623671	3.92
4.490	722464	4.54
4.493	818386	5.14
4.497	903387	5.68
4.500	970122	6.10
4.503	1014661	6.38
4.507	1041910	6.55
4.510	1049377	6.60
4.513	1037054	6.52
4.517	1008845	6.34
4.520	961663	6.04
4.523	901409	5.67
4.527	837054	5.26
4.530	766982	4.82
4.533	689207	4.33
4.537	608063	3.82
4.540	526668	3.31
4.543	449371	2.82
4.547	380923	2.39
4.550	321714	2.02
4.553	273343	1.72
4.557	235811	1.48
4.560	207482	1.30
4.563	188169	1.18
4.567	177252	1.11
4.570	171209	1.08
4.573	165626	1.04
4.577	159515	1.00
4.580	153337	0.96
4.583	146574	0.92
4.587	138473	0.87
4.590	129123	0.81
4.593	118027	0.74
4.597	108763	0.68
4.600	103805	0.65
4.603	100675	0.63
4.607	99829	0.63
4.610	100155	0.63
4.613	104553	0.66
4.617	113589	0.71
4.620	125657	0.79
4.623	138026	0.87
4.627	150455	0.95
4.630	164489	1.03
4.633	177237	1.11
4.637	188811	1.19
4.640	201468	1.27
4.643	211456	1.33
4.647	218867	1.38
4.650	226257	1.42
4.653	233086	1.46
4.657	235996	1.48
4.660	235667	1.48
4.663	235291	1.48
4.667	233031	1.46
4.670	226499	1.42
4.673	221199	1.39
4.677	217041	1.36
4.680	211503	1.33
4.683	207206	1.30
4.687	205102	1.29
4.690	205199	1.29
4.693	211448	1.33
4.697	225086	1.41
4.700	250767	1.58
4.703	296539	1.86
4.707	369334	2.32
4.710	478727	3.01
4.713	637143	4.00
4.717	857871	5.39
4.720	1145439	7.20
4.723	1495552	9.40
4.727	1905491	11.98
4.730	2354888	14.80
4.733	2828734	17.78
4.737	3313776	20.83
4.740	3747027	23.55
4.743	4093500	25.73
4.747	4374083	27.49
4.750	4576152	28.76
4.753	4635824	29.14
4.757	4515054	28.38
4.760	4262474	26.79
4.763	3929817	24.70
4.767	3514587	22.09
4.770	3028111	19.03
4.773	2520279	15.84
4.777	2044601	12.85
4.780	1630959	10.25
4.783	1294227	8.13
4.787	1030681	6.48
4.790	824866	5.18
4.793	665444	4.18
4.797	542926	3.41
4.800	449090	2.82
4.803	373820	2.35
4.807	310428	1.95
4.810	258226	1.62
4.813	217314	1.37
4.817	185819	1.17
4.820	161553	1.02
4.823	143039	0.90
4.827	129020	0.81
4.830	119257	0.75
4.833	112899	0.71
4.837	109648	0.69
4.840	107645	0.68
4.843	105977	0.67
4.847	105500	0.66
4.850	105231	0.66
4.853	103497	0.65
4.857	100993	0.63
4.860	97133	0.61
4.863	92930	0.58
4.867	88111	0.55
4.870	81124	0.51
4.873	74837	0.47
4.877	70172	0.44
4.880	68760	0.43
4.883	68922	0.43
4.887	71202	0.45
4.890	75873	0.48
4.893	83873	0.53
4.897	94338	0.59
4.900	107037	0.67
4.903	120872	0.76
4.907	135534	0.85
4.910	150392	0.95
4.913	167963	1.06
4.917	190892	1.20
4.920	217786	1.37
4.923	250446	1.57
4.927	293649	1.85
4.930	349671	2.20
4.933	418506	2.63
4.937	498858	3.14
4.940	586629	3.69
4.943	675161	4.24
4.947	760560	4.78
4.950	838056	5.27
4.953	897283	5.64
4.957	936404	5.89
4.960	954149	6.00
4.963	938768	5.90
4.967	890604	5.60
4.970	820234	5.16
4.973	736478	4.63
4.977	648353	4.07
4.980	562223	3.53
4.983	485034	3.05
4.987	419992	2.64
4.990	365716	2.30
4.993	320784	2.02
4.997	282363	1.77
5.000	251807	1.58
5.003	226329	1.42
5.007	201232	1.26
5.010	178550	1.12
5.013	158473	1.00
5.017	140290	0.88
5.020	124512	0.78
5.023	112276	0.71
5.027	102506	0.64
5.030	94104	0.59
5.033	89148	0.56
5.037	86116	0.54
5.040	83757	0.53
5.043	80954	0.51
5.047	78666	0.49
5.050	78169	0.49
5.053	78213	0.49
5.057	78586	0.49
5.060	80837	0.51
5.063	85895	0.54
5.067	94015	0.59
5.070	102727	0.65
5.073	112286	0.71
5.077	122503	0.77
5.080	131800	0.83
5.083	138107	0.87
5.087	142597	0.90
5.090	143951	0.90
5.093	143723	0.90
5.097	141036	0.89
5.100	138051	0.87
5.103	137130	0.86
5.107	137925	0.87
5.110	144103	0.91
5.113	156729	0.99
5.117	172665	1.09
5.120	191965	1.21
5.123	212944	1.34
5.127	235413	1.48
5.130	256960	1.62
5.133	271937	1.71
5.137	280594	1.76
5.140	285579	1.79
5.143	285575	1.79
5.147	280737	1.76
5.150	273175	1.72
5.153	262026	1.65
5.157	249536	1.57
5.160	235410	1.48
5.163	220248	1.38
5.167	206483	1.30
5.170	192054	1.21
5.173	176478	1.11
5.177	161969	1.02
5.180	150520	0.95
5.183	147390	0.93
5.187	159613	1.00
5.190	192780	1.21
5.193	249629	1.57
5.197	329261	2.07
5.200	424989	2.67
5.203	528972	3.32
5.207	635689	4.00
5.210	737623	4.64
5.213	825332	5.19
5.217	893322	5.61
5.220	936945	5.89
5.223	945534	5.94
5.227	920512	5.79
5.230	867689	5.45
5.233	784220	4.93
5.237	680182	4.28
5.240	575970	3.62
5.243	486726	3.06
5.247	414073	2.60
5.250	356873	2.24
5.253	313639	1.97
5.257	281466	1.77
5.260	259275	1.63
5.263	246864	1.55
5.267	242205	1.52
5.270	241376	1.52
5.273	242121	1.52
5.277	247498	1.56
5.280	254819	1.60
5.283	259275	1.63
5.287	261996	1.65
5.290	264135	1.66
5.293	261994	1.65
5.297	254395	1.60
5.300	242526	1.52
5.303	227626	1.43
5.307	209338	1.32
5.310	190680	1.20
5.313	171175	1.08
5.317	152330	0.96
5.320	135969	0.85
5.323	120757	0.76
5.327	108636	0.68
5.330	100420	0.63
5.333	93318	0.59
5.337	87140	0.55
5.340	83938	0.53
5.343	83780	0.53
5.347	87134	0.55
5.350	97072	0.61
5.353	111925	0.70
5.357	132212	0.83
5.360	161249	1.01
5.363	198894	1.25
5.367	243825	1.53
5.370	295240	1.86
5.373	349930	2.20
5.377	403711	2.54
5.380	452404	2.84
5.383	490824	3.08
5.387	514986	3.24
5.390	526080	3.31
5.393	521471	3.28
5.397	496602	3.12
5.400	458592	2.88
5.403	413074	2.60
5.407	361133	2.27
5.410	310814	1.95
5.413	268281	1.69
5.417	234895	1.48
5.420	214892	1.35
5.423	208591	1.31
5.427	214689	1.35
5.430	231196	1.45
5.433	254008	1.60
5.437	281260	1.77
5.440	310669	1.95
5.443	337531	2.12
5.447	358495	2.25
5.450	368985	2.32
5.453	367162	2.31
5.457	356158	2.24
5.460	340085	2.14
5.463	317229	1.99
5.467	287982	1.81
5.470	256143	1.61
5.473	222976	1.40
5.477	191336	1.20
5.480	164008	1.03
5.483	141704	0.89
5.487	123778	0.78
5.490	108039	0.68
5.493	94358	0.59
5.497	82893	0.52
5.500	73961	0.46
5.503	68032	0.43
5.507	65227	0.41
5.510	65220	0.41
5.513	68009	0.43
5.517	73907	0.46
5.520	82878	0.52
5.523	95374	0.60
5.527	110566	0.69
5.530	128680	0.81
5.533	148509	0.93
5.537	168355	1.06
5.540	188361	1.18
5.543	206511	1.30
5.547	220413	1.39
5.550	231178	1.45
5.553	239008	1.50
5.557	242761	1.53
5.560	242106	1.52
5.563	234745	1.48
5.567	223497	1.40
5.570	211310	1.33
5.573	198209	1.25
5.577	183088	1.15
5.580	168277	1.06
5.583	155827	0.98
5.587	147475	0.93
5.590	145118	0.91
5.593	152177	0.96
5.597	169641	1.07
5.600	199382	1.25
5.603	241952	1.52
5.607	296875	1.87
5.610	362588	2.28
5.613	435270	2.74
5.617	509795	3.20
5.620	577379	3.63
5.623	633452	3.98
5.627	675684	4.25
5.630	701376	4.41
5.633	705983	4.44
5.637	687956	4.32
5.640	649612	4.08
5.643	595911	3.75
5.647	532581	3.35
5.650	463220	2.91
5.653	392876	2.47
5.657	329046	2.07
5.660	275280	1.73
5.663	232227	1.46
5.667	202449	1.27
5.670	184769	1.16
5.673	176932	1.11
5.677	178957	1.12
5.680	189611	1.19
5.683	207084	1.30
5.687	228516	1.44
5.690	252500	1.59
5.693	279049	1.75
5.697	303590	1.91
5.700	323429	2.03
5.703	342225	2.15
5.707	360228	2.26
5.710	376086	2.36
5.713	390919	2.46
5.717	406183	2.55
5.720	425253	2.67
5.723	450204	2.83
5.727	479364	3.01
5.730	510747	3.21
5.733	540138	3.39
5.737	562836	3.54
5.740	575653	3.62
5.743	574179	3.61
5.747	557278	3.50
5.750	531224	3.34
5.753	495827	3.12
5.757	451337	2.84
5.760	406184	2.55
5.763	363962	2.29
5.767	326843	2.05
5.770	300930	1.89
5.773	292392	1.84
5.777	303950	1.91
5.780	338874	2.13
5.783	399596	2.51
5.787	487772	3.07
5.790	603909	3.80
5.793	747147	4.70
5.797	913338	5.74
5.800	1095266	6.88
5.803	1284021	8.07
5.807	1461099	9.18
5.810	1604789	10.09
5.813	1714451	10.78
5.817	1790038	11.25
5.820	1818041	11.43
5.823	1789608	11.25
5.827	1700418	10.69
5.830	1557009	9.79
5.833	1385600	8.71
5.837	1205547	7.58
5.840	1020383	6.41
5.843	838046	5.27
5.847	671912	4.22
5.850	530588	3.33
5.853	416306	2.62
5.857	329239	2.07
5.860	268694	1.69
5.863	228699	1.44
5.867	203698	1.28
5.870	191006	1.20
5.873	187065	1.18
5.877	186026	1.17
5.880	184736	1.16
5.883	183744	1.15
5.887	180432	1.13
5.890	174779	1.10
5.893	165966	1.04
5.897	153181	0.96
5.900	138712	0.87
5.903	126381	0.79
5.907	117602	0.74
5.910	111651	0.70
5.913	111648	0.70
5.917	118047	0.74
5.920	133551	0.84
5.923	157361	0.99
5.927	187576	1.18
5.930	224387	1.41
5.933	266988	1.68
5.937	313999	1.97
5.940	358183	2.25
5.943	392279	2.47
5.947	416956	2.62
5.950	431633	2.71
5.953	431731	2.71
5.957	420084	2.64
5.960	398378	2.50
5.963	365093	2.29
5.967	322264	2.03
5.970	278465	1.75
5.973	238254	1.50
5.977	203330	1.28
5.980	176362	1.11
5.983	158264	0.99
5.987	149448	0.94
5.990	149406	0.94
5.993	153076	0.96
5.997	159377	1.00
6.000	170182	1.07
6.003	180694	1.14
6.007	188922	1.19
6.010	195308	1.23
6.013	198724	1.25
6.017	198999	1.25
6.020	201457	1.27
6.023	202452	1.27
6.027	203254	1.28
6.030	210319	1.32
6.033	220706	1.39
6.037	230213	1.45
6.040	240707	1.51
6.043	254261	1.60
6.047	266728	1.68
6.050	274570	1.73
6.053	278436	1.75
6.057	276976	1.74
6.060	269951	1.70
6.063	259240	1.63
6.067	244805	1.54
6.070	227740	1.43
6.073	214547	1.35
6.077	205768	1.29
6.080	199339	1.25
6.083	199059	1.25
6.087	203251	1.28
6.090	210308	1.32
6.093	222236	1.40
6.097	240628	1.51
6.100	258764	1.63
6.103	274418	1.72
6.107	291823	1.83
6.110	307620	1.93
6.113	318564	2.00
6.117	325455	2.05
6.120	325467	2.05
6.123	319479	2.01
6.127	310228	1.95
6.130	296296	1.86
6.133	279788	1.76
6.137	266689	1.68
6.140	256951	1.61
6.143	245239	1.54
6.147	231594	1.46
6.150	218726	1.37
6.153	207410	1.30
6.157	195266	1.23
6.160	179631	1.13
6.163	161780	1.02
6.167	145712	0.92
6.170	132050	0.83
6.173	120139	0.76
6.177	110027	0.69
6.180	101255	0.64
6.183	93538	0.59
6.187	88456	0.56
6.190	86889	0.55
6.193	86863	0.55
6.197	86907	0.55
6.200	87727	0.55
6.203	92026	0.58
6.207	96891	0.61
6.210	101565	0.64
6.213	107271	0.67
6.217	110938	0.70
6.220	113654	0.71
6.223	114344	0.72
6.227	114281	0.72
6.230	112875	0.71
6.233	110882	0.70
6.237	109110	0.69
6.240	107788	0.68
6.243	107663	0.68
6.247	108952	0.68
6.250	112398	0.71
6.253	118081	0.74
6.257	127408	0.80
6.260	138758	0.87
6.263	151172	0.95
6.267	165062	1.04
6.270	180355	1.13
6.273	195991	1.23
6.277	209635	1.32
6.280	218678	1.37
6.283	219227	1.38
6.287	215815	1.36
6.290	209152	1.31
6.293	199399	1.25
6.297	188955	1.19
6.300	176170	1.11
6.303	161137	1.01
6.307	146738	0.92
6.310	134146	0.84
6.313	122644	0.77
6.317	112902	0.71
6.320	104529	0.66
6.323	96979	0.61
6.327	91088	0.57
6.330	86378	0.54
6.333	82602	0.52
6.337	79703	0.50
6.340	76599	0.48
6.343	74054	0.47
6.347	71809	0.45
6.350	71200	0.45
6.353	71178	0.45
6.357	71202	0.45
6.360	71167	0.45
6.363	71181	0.45
6.367	71300	0.45
6.370	71965	0.45
6.373	73265	0.46
6.377	74254	0.47
6.380	76489	0.48
6.383	79190	0.50
6.387	79734	0.50
6.390	80054	0.50
6.393	80232	0.50
6.397	80137	0.50
6.400	79866	0.50
6.403	79753	0.50
6.407	79775	0.50
6.410	82490	0.52
6.413	88146	0.55
6.417	95536	0.60
6.420	106805	0.67
6.423	123722	0.78
6.427	146090	0.92
6.430	170527	1.07
6.433	199036	1.25
6.437	232479	1.46
6.440	267614	1.68
6.443	302234	1.90
6.447	339488	2.13
6.450	376008	2.36
6.453	408392	2.57
6.457	435564	2.74
6.460	461141	2.90
6.463	486729	3.06
6.467	510673	3.21
6.470	534538	3.36
6.473	557948	3.51
6.477	580215	3.65
6.480	597182	3.75
6.483	605431	3.81
6.487	607606	3.82
6.490	599224	3.77
6.493	576860	3.63
6.497	548189	3.45
6.500	513652	3.23
6.503	469017	2.95
6.507	419834	2.64
6.510	375683	2.36
6.513	341787	2.15
6.517	317882	2.00
6.520	297821	1.87
6.523	283460	1.78
6.527	275121	1.73
6.530	268600	1.69
6.533	264494	1.66
6.537	260444	1.64
6.540	255711	1.61
6.543	254024	1.60
6.547	255562	1.61
6.550	257391	1.62
6.553	257435	1.62
6.557	255976	1.61
6.560	257104	1.62
6.563	260379	1.64
6.567	263056	1.65
6.570	268047	1.68
6.573	277196	1.74
6.577	290465	1.83
6.580	312955	1.97
6.583	352783	2.22
6.587	417450	2.62
6.590	520866	3.27
6.593	678233	4.26
6.597	908700	5.71
6.600	1224505	7.70
6.603	1628422	10.23
6.607	2125224	13.36
6.610	2703329	16.99
6.613	3351358	21.06
6.617	4073368	25.60
6.620	4838374	30.41
6.623	5588720	35.13
6.627	6275083	39.44
6.630	6868382	43.17
6.633	7359606	46.26
6.637	7802278	49.04
6.640	8201313	51.55
6.643	8452426	53.12
6.647	8516482	53.53
6.650	8452478	53.12
6.653	8272964	52.00
6.657	7843793	49.30
6.660	7118862	44.74
6.663	6208517	39.02
6.667	5192224	32.63
6.670	4161171	26.15
6.673	3210757	20.18
6.677	2392036	15.03
6.680	1743165	10.96
6.683	1265056	7.95
6.687	930134	5.85
6.690	715839	4.50
6.693	593968	3.73
6.697	538858	3.39
6.700	536556	3.37
6.703	575924	3.62
6.707	649570	4.08
6.710	751363	4.72
6.713	876007	5.51
6.717	1014801	6.38
6.720	1154502	7.26
6.723	1285624	8.08
6.727	1396477	8.78
6.730	1477271	9.28
6.733	1528724	9.61
6.737	1546119	9.72
6.740	1511236	9.50
6.743	1433032	9.01
6.747	1334922	8.39
6.750	1220797	7.67
6.753	1094984	6.88
6.757	974938	6.13
6.760	875138	5.50
6.763	808688	5.08
6.767	788124	4.95
6.770	810191	5.09
6.773	867947	5.46
6.777	957709	6.02
6.780	1074601	6.75
6.783	1211189	7.61
6.787	1355314	8.52
6.790	1486748	9.34
6.793	1591415	10.00
6.797	1673541	10.52
6.800	1733783	10.90
6.803	1759623	11.06
6.807	1745558	10.97
6.810	1680533	10.56
6.813	1571877	9.88
6.817	1456938	9.16
6.820	1340868	8.43
6.823	1210181	7.61
6.827	1069426	6.72
6.830	934893	5.88
6.833	813260	5.11
6.837	703013	4.42
6.840	603684	3.79
6.843	519460	3.26
6.847	447529	2.81
6.850	383946	2.41
6.853	330768	2.08
6.857	288488	1.81
6.860	255725	1.61
6.863	232134	1.46
6.867	218986	1.38
6.870	217865	1.37
6.873	230063	1.45
6.877	259654	1.63
6.880	314947	1.98
6.883	408974	2.57
6.887	557183	3.50
6.890	775501	4.87
6.893	1069232	6.72
6.897	1449595	9.11
6.900	1936035	12.17
6.903	2528954	15.89
6.907	3219730	20.24
6.910	3985587	25.05
6.913	4765446	29.95
6.917	5522706	34.71
6.920	6277508	39.45
6.923	7035615	44.22
6.927	7800236	49.03
6.930	8577165	53.91
6.933	9327028	58.62
6.937	10002119	62.86
6.940	10613747	66.71
6.943	11189548	70.33
6.947	11670862	73.35
6.950	12044478	75.70
6.953	12419425	78.06
6.957	12767586	80.25
6.960	12992815	81.66
6.963	13153889	82.67
6.967	13263526	83.36
6.970	13191668	82.91
6.973	12904703	81.11
6.977	12459798	78.31
6.980	11907619	74.84
6.983	11348430	71.33
6.987	10882619	68.40
6.990	10640318	66.88
6.993	10686138	67.16
6.997	10898471	68.50
7.000	11155715	70.11
7.003	11385172	71.56
7.007	11419071	71.77
7.010	11117809	69.88
7.013	10441376	65.63
7.017	9347912	58.75
7.020	7906523	49.69
7.023	6313084	39.68
7.027	4794593	30.13
7.030	3524868	22.15
7.033	2542360	15.98
7.037	1809218	11.37
7.040	1287513	8.09
7.043	933384	5.87
7.047	699528	4.40
7.050	545433	3.43
7.053	440969	2.77
7.057	369627	2.32
7.060	321806	2.02
7.063	287028	1.80
7.067	261186	1.64
7.070	245554	1.54
7.073	238207	1.50
7.077	236300	1.49
7.080	238074	1.50
7.083	240071	1.51
7.087	243134	1.53
7.090	247442	1.56
7.093	248369	1.56
7.097	243521	1.53
7.100	235898	1.48
7.103	224928	1.41
7.107	210461	1.32
7.110	193710	1.22
7.113	176865	1.11
7.117	161005	1.01
7.120	145241	0.91
7.123	130762	0.82
7.127	119189	0.75
7.130	110302	0.69
7.133	103263	0.65
7.137	98483	0.62
7.140	96350	0.61
7.143	96382	0.61
7.147	98504	0.62
7.150	100758	0.63
7.153	103288	0.65
7.157	107351	0.67
7.160	112794	0.71
7.163	119202	0.75
7.167	127857	0.80
7.170	140199	0.88
7.173	155951	0.98
7.177	176522	1.11
7.180	201588	1.27
7.183	229620	1.44
7.187	260453	1.64
7.190	292217	1.84
7.193	323083	2.03
7.197	351610	2.21
7.200	376915	2.37
7.203	395546	2.49
7.207	402961	2.53
7.210	401086	2.52
7.213	391997	2.46
7.217	373633	2.35
7.220	350491	2.20
7.223	325833	2.05
7.227	299205	1.88
7.230	274593	1.73
7.233	254806	1.60
7.237	238395	1.50
7.240	225055	1.41
7.243	213546	1.34
7.247	202012	1.27
7.250	192838	1.21
7.253	187775	1.18
7.257	184384	1.16
7.260	180186	1.13
7.263	175755	1.10
7.267	170945	1.07
7.270	165899	1.04
7.273	160367	1.01
7.277	152742	0.96
7.280	143034	0.90
7.283	133664	0.84
7.287	124479	0.78
7.290	114361	0.72
7.293	105202	0.66
7.297	98383	0.62
7.300	93926	0.59
7.303	93700	0.59
7.307	96076	0.60
7.310	100340	0.63
7.313	106276	0.67
7.317	114356	0.72
7.320	121462	0.76
7.323	126579	0.80
7.327	129754	0.82
7.330	129759	0.82
7.333	126716	0.80
7.337	121494	0.76
7.340	114331	0.72
7.343	104431	0.66
7.347	93772	0.59
7.350	84631	0.53
7.353	77452	0.49
7.357	70559	0.44
7.360	66142	0.42
7.363	63703	0.40
7.367	62435	0.39
7.370	63593	0.40
7.373	65707	0.41
7.377	66128	0.42
7.380	69411	0.44
7.383	73171	0.46
7.387	77477	0.49
7.390	84532	0.53
7.393	93343	0.59
7.397	102080	0.64
7.400	114362	0.72
7.403	132400	0.83
7.407	153879	0.97
7.410	178151	1.12
7.413	205076	1.29
7.417	232233	1.46
7.420	260457	1.64
7.423	290528	1.83
7.427	319966	2.01
7.430	348386	2.19
7.433	375527	2.36
7.437	402817	2.53
7.440	429067	2.70
7.443	451693	2.84
7.447	471587	2.96
7.450	485863	3.05
7.453	492813	3.10
7.457	494952	3.11
7.460	493054	3.10
7.463	488097	3.07
7.467	479338	3.01
7.470	460693	2.90
7.473	432307	2.72
7.477	400462	2.52
7.480	368130	2.31
7.483	339291	2.13
7.487	315258	1.98
7.490	294239	1.85
7.493	278615	1.75
7.497	268546	1.69
7.500	265798	1.67
7.503	268506	1.69
7.507	272737	1.71
7.510	279113	1.75
7.513	286928	1.80
7.517	292294	1.84
7.520	296439	1.86
7.523	297715	1.87
7.527	293002	1.84
7.530	287258	1.81
7.533	284188	1.79
7.537	283517	1.78
7.540	286736	1.80
7.543	293783	1.85
7.547	307029	1.93
7.550	324329	2.04
7.553	342849	2.15
7.557	360701	2.27
7.560	374759	2.36
7.563	383042	2.41
7.567	383037	2.41
7.570	374754	2.36
7.573	362547	2.28
7.577	342852	2.15
7.580	314415	1.98
7.583	282465	1.78
7.587	250382	1.57
7.590	223026	1.40
7.593	204168	1.28
7.597	198069	1.24
7.600	209704	1.32
7.603	246346	1.55
7.607	322767	2.03
7.610	457458	2.88
7.613	666328	4.19
7.617	962443	6.05
7.620	1348967	8.48
7.623	1824460	11.47
7.627	2397157	15.07
7.630	3063221	19.25
7.633	3787131	23.80
7.637	4546381	28.57
7.640	5339743	33.56
7.643	6146654	38.63
7.647	6944906	43.65
7.650	7722214	48.53
7.653	8453282	53.13
7.657	9079228	57.06
7.660	9610932	60.41
7.663	10078307	63.34
7.667	10403720	65.39
7.670	10595700	66.60
7.673	10703847	67.27
7.677	10637480	66.86
7.680	10184653	64.01
7.683	9260682	58.20
7.687	8032609	50.49
7.690	6654021	41.82
7.693	5218836	32.80
7.697	3876751	24.37
7.700	2780334	17.47
7.703	1972089	12.39
7.707	1412738	8.88
7.710	1045679	6.57
7.713	814476	5.12
7.717	672133	4.22
7.720	577471	3.63
7.723	511725	3.22
7.727	470973	2.96
7.730	446083	2.80
7.733	424005	2.66
7.737	403348	2.54
7.740	388326	2.44
7.743	379120	2.38
7.747	372048	2.34
7.750	363865	2.29
7.753	353806	2.22
7.757	341262	2.14
7.760	327514	2.06
7.763	315339	1.98
7.767	303241	1.91
7.770	287951	1.81
7.773	272785	1.71
7.777	258106	1.62
7.780	243379	1.53
7.783	230566	1.45
7.787	218438	1.37
7.790	205487	1.29
7.793	193328	1.22
7.797	180957	1.14
7.800	167223	1.05
7.803	154800	0.97
7.807	144621	0.91
7.810	134012	0.84
7.813	122576	0.77
7.817	112789	0.71
7.820	105879	0.67
7.823	101690	0.64
7.827	99423	0.62
7.830	99333	0.62
7.833	99524	0.63
7.837	101690	0.64
7.840	104348	0.66
7.843	105530	0.66
7.847	106588	0.67
7.850	109445	0.69
7.853	112783	0.71
7.857	116632	0.73
7.860	119142	0.75
7.863	119484	0.75
7.867	121985	0.77
7.870	125487	0.79
7.873	130162	0.82
7.877	136728	0.86
7.880	145851	0.92
7.883	161844	1.02
7.887	187553	1.18
7.890	224778	1.41
7.893	280317	1.76
7.897	362712	2.28
7.900	477052	3.00
7.903	629745	3.96
7.907	822469	5.17
7.910	1055097	6.63
7.913	1329756	8.36
7.917	1636077	10.28
7.920	1952699	12.27
7.923	2267035	14.25
7.927	2566518	16.13
7.930	2832273	17.80
7.933	3047834	19.16
7.937	3193972	20.07
7.940	3226412	20.28
7.943	3110912	19.55
7.947	2893075	18.18
7.950	2621233	16.47
7.953	2303339	14.48
7.957	1948456	12.25
7.960	1575826	9.90
7.963	1224732	7.70
7.967	926424	5.82
7.970	687384	4.32
7.973	507604	3.19
7.977	381415	2.40
7.980	294960	1.85
7.983	236427	1.49
7.987	197947	1.24
7.990	172685	1.09
7.993	155728	0.98
7.997	143988	0.90
8.000	134943	0.85
8.003	126893	0.80
8.007	118504	0.74
8.010	109203	0.69
8.013	100626	0.63
8.017	93558	0.59
8.020	86110	0.54
8.023	78880	0.50
8.027	73989	0.47
8.030	69170	0.43
8.033	66501	0.42
8.037	66451	0.42
8.040	66476	0.42
8.043	67115	0.42
8.047	69324	0.44
8.050	71940	0.45
8.053	74364	0.47
8.057	77664	0.49
8.060	80638	0.51
8.063	82884	0.52
8.067	84806	0.53
8.070	88218	0.55
8.073	92534	0.58
8.077	97509	0.61
8.080	104642	0.66
8.083	113853	0.72
8.087	125083	0.79
8.090	137739	0.87
8.093	150646	0.95
8.097	162538	1.02
8.100	175471	1.10
8.103	187345	1.18
8.107	195725	1.23
8.110	200303	1.26
8.113	202002	1.27
8.117	200194	1.26
8.120	193470	1.22
8.123	183209	1.15
8.127	172345	1.08
8.130	161637	1.02
8.133	151223	0.95
8.137	142354	0.89
8.140	134487	0.85
8.143	131176	0.82
8.147	131259	0.82
8.150	134329	0.84
8.153	139243	0.88
8.157	151111	0.95
8.160	169382	1.06
8.163	194869	1.22
8.167	228708	1.44
8.170	264730	1.66
8.173	299474	1.88
8.177	333388	2.10
8.180	365502	2.30
8.183	391673	2.46
8.187	404114	2.54
8.190	403478	2.54
8.193	392482	2.47
8.197	373954	2.35
8.200	346748	2.18
8.203	314359	1.98
8.207	282201	1.77
8.210	254123	1.60
8.213	229615	1.44
8.217	209467	1.32
8.220	193571	1.22
8.223	181576	1.14
8.227	171050	1.08
8.230	160829	1.01
8.233	152213	0.96
8.237	144949	0.91
8.240	136120	0.86
8.243	125229	0.79
8.247	113525	0.71
8.250	102844	0.65
8.253	92660	0.58
8.257	83843	0.53
8.260	78396	0.49
8.263	75206	0.47
8.267	73671	0.46
8.270	75192	0.47
8.273	81065	0.51
8.277	89506	0.56
8.280	98993	0.62
8.283	110393	0.69
8.287	124248	0.78
8.290	137120	0.86
8.293	149684	0.94
8.297	161941	1.02
8.300	173845	1.09
8.303	181686	1.14
8.307	184056	1.16
8.310	182815	1.15
8.313	177136	1.11
8.317	168106	1.06
8.320	157946	0.99
8.323	147821	0.93
8.327	136800	0.86
8.330	124842	0.78
8.333	113605	0.71
8.337	104978	0.66
8.340	98008	0.62
8.343	89580	0.56
8.347	84291	0.53
8.350	81673	0.51
8.353	80627	0.51
8.357	80880	0.51
8.360	82194	0.52
8.363	84331	0.53
8.367	88913	0.56
8.370	94182	0.59
8.373	99309	0.62
8.377	104507	0.66
8.380	110492	0.69
8.383	116607	0.73
8.387	121376	0.76
8.390	125504	0.79
8.393	129712	0.82
8.397	133611	0.84
8.400	136443	0.86
8.403	136442	0.86
8.407	136608	0.86
8.410	139998	0.88
8.413	142077	0.89
8.417	143402	0.90
8.420	148620	0.93
8.423	158113	0.99
8.427	170895	1.07
8.430	187249	1.18
8.433	205665	1.29
8.437	226158	1.42
8.440	247482	1.56
8.443	268375	1.69
8.447	286883	1.80
8.450	298856	1.88
8.453	302841	1.90
8.457	298855	1.88
8.460	286682	1.80
8.463	268370	1.69
8.467	247458	1.56
8.470	225096	1.41
8.473	202361	1.27
8.477	181650	1.14
8.480	161206	1.01
8.483	143348	0.90
8.487	130654	0.82
8.490	121647	0.76
8.493	115051	0.72
8.497	113059	0.71
8.500	112921	0.71
8.503	112917	0.71
8.507	113318	0.71
8.510	113740	0.71
8.513	113232	0.71
8.517	113000	0.71
8.520	113525	0.71
8.523	114827	0.72
8.527	116023	0.73
8.530	118706	0.75
8.533	121904	0.77
8.537	126181	0.79
8.540	130640	0.82
8.543	135950	0.85
8.547	142746	0.90
8.550	152027	0.96
8.553	164000	1.03
8.557	176316	1.11
8.560	188716	1.19
8.563	201628	1.27
8.567	216416	1.36
8.570	230350	1.45
8.573	240225	1.51
8.577	249800	1.57
8.580	259490	1.63
8.583	260645	1.64
8.587	257271	1.62
8.590	252174	1.58
8.593	244334	1.54
8.597	235870	1.48
8.600	229310	1.44
8.603	223807	1.41
8.607	217833	1.37
8.610	213812	1.34
8.613	213308	1.34
8.617	213849	1.34
8.620	216761	1.36
8.623	217800	1.37
8.627	219741	1.38
8.630	225049	1.41
8.633	234422	1.47
8.637	249694	1.57
8.640	273265	1.72
8.643	307284	1.93
8.647	352866	2.22
8.650	415060	2.61
8.653	498041	3.13
8.657	596275	3.75
8.660	702872	4.42
8.663	818440	5.14
8.667	929684	5.84
8.670	1020251	6.41
8.673	1098717	6.91
8.677	1169237	7.35
8.680	1220118	7.67
8.683	1238494	7.78
8.687	1227899	7.72
8.690	1205275	7.58
8.693	1167990	7.34
8.697	1103414	6.94
8.700	1020274	6.41
8.703	932659	5.86
8.707	848101	5.33
8.710	763329	4.80
8.713	670326	4.21
8.717	572853	3.60
8.720	480193	3.02
8.723	398316	2.50
8.727	327144	2.06
8.730	265646	1.67
8.733	213215	1.34
8.737	170711	1.07
8.740	139682	0.88
8.743	117706	0.74
8.747	101882	0.64
8.750	90275	0.57
8.753	81188	0.51
8.757	74744	0.47
8.760	71881	0.45
8.763	71797	0.45
8.767	72438	0.46
8.770	74767	0.47
8.773	78323	0.49
8.777	84089	0.53
8.780	90071	0.57
8.783	95781	0.60
8.787	103463	0.65
8.790	110919	0.70
8.793	117696	0.74
8.797	124203	0.78
8.800	129734	0.82
8.803	134722	0.85
8.807	139145	0.87
8.810	143172	0.90
8.813	147720	0.93
8.817	151340	0.95
8.820	155649	0.98
8.823	161831	1.02
8.827	167547	1.05
8.830	171507	1.08
8.833	174717	1.10
8.837	178934	1.12
8.840	184777	1.16
8.843	189486	1.19
8.847	192609	1.21
8.850	195140	1.23
8.853	198919	1.25
8.857	200853	1.26
8.860	200494	1.26
8.863	199765	1.26
8.867	203253	1.28
8.870	208681	1.31
8.873	215037	1.35
8.877	224097	1.41
8.880	235977	1.48
8.883	251225	1.58
8.887	267041	1.68
8.890	283045	1.78
8.893	299545	1.88
8.897	314572	1.98
8.900	326069	2.05
8.903	329920	2.07
8.907	327389	2.06
8.910	320737	2.02
8.913	309062	1.94
8.917	299556	1.88
8.920	295873	1.86
8.923	295246	1.86
8.927	295614	1.86
8.930	299582	1.88
8.933	304839	1.92
8.937	308434	1.94
8.940	307438	1.93
8.943	299242	1.88
8.947	286321	1.80
8.950	271878	1.71
8.953	253955	1.60
8.957	234514	1.47
8.960	214185	1.35
8.963	194466	1.22
8.967	177764	1.12
8.970	163857	1.03
8.973	153764	0.97
8.977	147375	0.93
8.980	143538	0.90
8.983	143569	0.90
8.987	149330	0.94
8.990	160238	1.01
8.993	179125	1.13
8.997	210176	1.32
9.000	253946	1.60
9.003	310429	1.95
9.007	379885	2.39
9.010	459882	2.89
9.013	551735	3.47
9.017	653545	4.11
9.020	752771	4.73
9.023	832089	5.23
9.027	885481	5.57
9.030	915475	5.75
9.033	922778	5.80
9.037	910664	5.72
9.040	872265	5.48
9.043	805201	5.06
9.047	724148	4.55
9.050	640929	4.03
9.053	558113	3.51
9.057	474867	2.98
9.060	395730	2.49
9.063	326741	2.05
9.067	269681	1.69
9.070	223334	1.40
9.073	185723	1.17
9.077	156038	0.98
9.080	132559	0.83
9.083	113786	0.72
9.087	97966	0.62
9.090	85450	0.54
9.093	76570	0.48
9.097	70045	0.44
9.100	64966	0.41
9.103	62116	0.39
9.107	59763	0.38
9.110	57227	0.36
9.113	56316	0.35
9.117	56032	0.35
9.120	56005	0.35
9.123	56318	0.35
9.127	56123	0.35
9.130	55820	0.35
9.133	56151	0.35
9.137	59228	0.37
9.140	61781	0.39
9.143	64900	0.41
9.147	72256	0.45
9.150	83278	0.52
9.153	97524	0.61
9.157	115524	0.73
9.160	137834	0.87
9.163	162485	1.02
9.167	188650	1.19
9.170	216642	1.36
9.173	244199	1.53
9.177	272302	1.71
9.180	303816	1.91
9.183	334913	2.10
9.187	361376	2.27
9.190	384391	2.42
9.193	407380	2.56
9.197	429597	2.70
9.200	444848	2.80
9.203	452749	2.85
9.207	454859	2.86
9.210	444913	2.80
9.213	425856	2.68
9.217	401489	2.52
9.220	369415	2.32
9.223	333606	2.10
9.227	296488	1.86
9.230	259155	1.63
9.233	224684	1.41
9.237	194301	1.22
9.240	167946	1.06
9.243	145101	0.91
9.247	125568	0.79
9.250	110401	0.69
9.253	100013	0.63
9.257	90666	0.57
9.260	84767	0.53
9.263	82067	0.52
9.267	81394	0.51
9.270	81389	0.51
9.273	82961	0.52
9.277	86400	0.54
9.280	90471	0.57
9.283	94062	0.59
9.287	97737	0.61
9.290	100795	0.63
9.293	103980	0.65
9.297	107100	0.67
9.300	110036	0.69
9.303	112462	0.71
9.307	115239	0.72
9.310	116740	0.73
9.313	119695	0.75
9.317	122322	0.77
9.320	123058	0.77
9.323	125771	0.79
9.327	131240	0.82
9.330	136857	0.86
9.333	141297	0.89
9.337	145281	0.91
9.340	149125	0.94
9.343	149623	0.94
9.347	149417	0.94
9.350	147820	0.93
9.353	144902	0.91
9.357	141312	0.89
9.360	136827	0.86
9.363	130949	0.82
9.367	125563	0.79
9.370	120261	0.76
9.373	115414	0.73
9.377	111952	0.70
9.380	109868	0.69
9.383	106957	0.67
9.387	102878	0.65
9.390	100288	0.63
9.393	100172	0.63
9.397	100106	0.63
9.400	100033	0.63
9.403	100383	0.63
9.407	103114	0.65
9.410	107098	0.67
9.413	112903	0.71
9.417	120110	0.75
9.420	126832	0.80
9.423	134970	0.85
9.427	141515	0.89
9.430	145205	0.91
9.433	147321	0.93
9.437	147241	0.93
9.440	145503	0.91
9.443	143579	0.90
9.447	139415	0.88
9.450	132524	0.83
9.453	125546	0.79
9.457	120102	0.75
9.460	115551	0.73
9.463	112118	0.70
9.467	111763	0.70
9.470	111912	0.70
9.473	115168	0.72
9.477	120348	0.76
9.480	126905	0.80
9.483	132481	0.83
9.487	137885	0.87
9.490	141948	0.89
9.493	142847	0.90
9.497	142063	0.89
9.500	139351	0.88
9.503	134048	0.84
9.507	127031	0.80
9.510	119896	0.75
9.513	111888	0.70
9.517	104294	0.66
9.520	95980	0.60
9.523	87412	0.55
9.527	81330	0.51
9.530	76798	0.48
9.533	72964	0.46
9.537	72528	0.46
9.540	73199	0.46
9.543	75303	0.47
9.547	77171	0.49
9.550	81322	0.51
9.553	85108	0.53
9.557	89016	0.56
9.560	93542	0.59
9.563	98294	0.62
9.567	100332	0.63
9.570	100680	0.63
9.573	101040	0.64
9.577	100352	0.63
9.580	98159	0.62
9.583	96134	0.60
9.587	93351	0.59
9.590	89222	0.56
9.593	86318	0.54
9.597	83875	0.53
9.600	82097	0.52
9.603	84163	0.53
9.607	89240	0.56
9.610	98194	0.62
9.613	115375	0.73
9.617	146622	0.92
9.620	194866	1.22
9.623	266495	1.67
9.627	370684	2.33
9.630	511345	3.21
9.633	694492	4.36
9.637	928270	5.83
9.640	1203470	7.56
9.643	1516583	9.53
9.647	1872336	11.77
9.650	2234209	14.04
9.653	2549278	16.02
9.657	2813495	17.68
9.660	3037616	19.09
9.663	3204190	20.14
9.667	3304783	20.77
9.670	3315466	20.84
9.673	3203325	20.13
9.677	2994314	18.82
9.680	2744234	17.25
9.683	2484499	15.62
9.687	2202180	13.84
9.690	1895245	11.91
9.693	1604002	10.08
9.697	1347936	8.47
9.700	1124220	7.07
9.703	940117	5.91
9.707	787964	4.95
9.710	657231	4.13
9.713	553943	3.48
9.717	471510	2.96
9.720	397180	2.50
9.723	331611	2.08
9.727	278276	1.75
9.730	236899	1.49
9.733	204343	1.28
9.737	176490	1.11
9.740	153067	0.96
9.743	135104	0.85
9.747	121242	0.76
9.750	110085	0.69
9.753	101436	0.64
9.757	93696	0.59
9.760	87745	0.55
9.763	83030	0.52
9.767	80589	0.51
9.770	79905	0.50
9.773	79939	0.50
9.777	79977	0.50
9.780	79728	0.50
9.783	79790	0.50
9.787	80478	0.51
9.790	82179	0.52
9.793	84712	0.53
9.797	87861	0.55
9.800	90315	0.57
9.803	91808	0.58
9.807	93716	0.59
9.810	93903	0.59
9.813	95076	0.60
9.817	98945	0.62
9.820	102777	0.65
9.823	108851	0.68
9.827	118099	0.74
9.830	129045	0.81
9.833	141141	0.89
9.837	155730	0.98
9.840	174438	1.10
9.843	197389	1.24
9.847	224650	1.41
9.850	258296	1.62
9.853	300915	1.89
9.857	355656	2.24
9.860	427271	2.69
9.863	522742	3.29
9.867	650463	4.09
9.870	816142	5.13
9.873	1023833	6.43
9.877	1282713	8.06
9.880	1607660	10.10
9.883	2018789	12.69
9.887	2517727	15.82
9.890	3089682	19.42
9.893	3740098	23.51
9.897	4440876	27.91
9.900	5125703	32.22
9.903	5794908	36.42
9.907	6474316	40.69
9.910	7127897	44.80
9.913	7721338	48.53
9.917	8224676	51.69
9.920	8624358	54.20
9.923	8939759	56.19
9.927	9162015	57.58
9.930	9193057	57.78
9.933	8979860	56.44
9.937	8520065	53.55
9.940	7813437	49.11
9.943	6882080	43.25
9.947	5825428	36.61
9.950	4738608	29.78
9.953	3729445	23.44
9.957	2863868	18.00
9.960	2154622	13.54
9.963	1605187	10.09
9.967	1196139	7.52
9.970	906445	5.70
9.973	721990	4.54
9.977	624274	3.92
9.980	604831	3.80
9.983	665148	4.18
9.987	813718	5.11
9.990	1047976	6.59
9.993	1369018	8.60
9.997	1782922	11.21
10.000	2260096	14.20
10.003	2777320	17.46
10.007	3347393	21.04
10.010	3933350	24.72
10.013	4458499	28.02
10.017	4893070	30.75
10.020	5244362	32.96
10.023	5457630	34.30
10.027	5509979	34.63
10.030	5440125	34.19
10.033	5184814	32.59
10.037	4801737	30.18
10.040	4409810	27.72
10.043	3938790	24.76
10.047	3372852	21.20
10.050	2842285	17.86
10.053	2441622	15.35
10.057	2140369	13.45
10.060	1884885	11.85
10.063	1672470	10.51
10.067	1498692	9.42
10.070	1339568	8.42
10.073	1176422	7.39
10.077	1014955	6.38
10.080	866297	5.44
10.083	722633	4.54
10.087	588469	3.70
10.090	479506	3.01
10.093	395830	2.49
10.097	334210	2.10
10.100	294283	1.85
10.103	274449	1.72
10.107	269323	1.69
10.110	270346	1.70
10.113	274430	1.72
10.117	279097	1.75
10.120	285276	1.79
10.123	289065	1.82
10.127	289574	1.82
10.130	287278	1.81
10.133	278781	1.75
10.137	267652	1.68
10.140	260969	1.64
10.143	267637	1.68
10.147	296956	1.87
10.150	359513	2.26
10.153	468717	2.95
10.157	637689	4.01
10.160	875343	5.50
10.163	1183983	7.44
10.167	1563362	9.83
10.170	2018052	12.68
10.173	2534608	15.93
10.177	3090636	19.42
10.180	3643989	22.90
10.183	4161650	26.16
10.187	4641906	29.17
10.190	5025004	31.58
10.193	5270829	33.13
10.197	5386007	33.85
10.200	5323243	33.46
10.203	5095339	32.02
10.207	4728602	29.72
10.210	4210159	26.46
10.213	3593782	22.59
10.217	2942077	18.49
10.220	2312729	14.54
10.223	1778033	11.18
10.227	1366834	8.59
10.230	1084512	6.82
10.233	920800	5.79
10.237	849586	5.34
10.240	848802	5.33
10.243	901030	5.66
10.247	980577	6.16
10.250	1057942	6.65
10.253	1126165	7.08
10.257	1184281	7.44
10.260	1206508	7.58
10.263	1168725	7.35
10.267	1083778	6.81
10.270	976622	6.14
10.273	858975	5.40
10.277	734677	4.62
10.280	609638	3.83
10.283	496535	3.12
10.287	403321	2.53
10.290	328286	2.06
10.293	274485	1.73
10.297	240849	1.51
10.300	220599	1.39
10.303	207817	1.31
10.307	200722	1.26
10.310	199058	1.25
10.313	199969	1.26
10.317	203052	1.28
10.320	206361	1.30
10.323	210006	1.32
10.327	213882	1.34
10.330	216788	1.36
10.333	218096	1.37
10.337	220707	1.39
10.340	220808	1.39
10.343	217972	1.37
10.347	213866	1.34
10.350	210043	1.32
10.353	203660	1.28
10.357	194593	1.22
10.360	185368	1.17
10.363	176383	1.11
10.367	168377	1.06
10.370	162141	1.02
10.373	155691	0.98
10.377	149105	0.94
10.380	144099	0.91
10.383	142326	0.89
10.387	142456	0.90
10.390	144503	0.91
10.393	152042	0.96
10.397	168396	1.06
10.400	198483	1.25
10.403	248358	1.56
10.407	329625	2.07
10.410	456387	2.87
10.413	641328	4.03
10.417	902223	5.67
10.420	1251739	7.87
10.423	1689155	10.62
10.427	2183577	13.72
10.430	2721586	17.11
10.433	3273897	20.58
10.437	3815468	23.98
10.440	4309995	27.09
10.443	4665830	29.33
10.447	4887123	30.72
10.450	5037649	31.66
10.453	5066545	31.84
10.457	4896478	30.77
10.460	4573624	28.75
10.463	4132240	25.97
10.467	3563053	22.39
10.470	2927570	18.40
10.473	2320716	14.59
10.477	1775474	11.16
10.480	1318191	8.28
10.483	964238	6.06
10.487	702396	4.41
10.490	517227	3.25
10.493	391610	2.46
10.497	308763	1.94
10.500	253728	1.59
10.503	214045	1.35
10.507	184651	1.16
10.510	165528	1.04
10.513	152357	0.96
10.517	139567	0.88
10.520	127745	0.80
10.523	119641	0.75
10.527	114016	0.72
10.530	108675	0.68
10.533	103345	0.65
10.537	100176	0.63
10.540	97703	0.61
10.543	96116	0.60
10.547	94007	0.59
10.550	93845	0.59
10.553	93881	0.59
10.557	94355	0.59
10.560	96532	0.61
10.563	98834	0.62
10.567	100684	0.63
10.570	101367	0.64
10.573	102226	0.64
10.577	102366	0.64
10.580	101937	0.64
10.583	102008	0.64
10.587	101920	0.64
10.590	101148	0.64
10.593	100938	0.63
10.597	101693	0.64
10.600	102299	0.64
10.603	104772	0.66
10.607	109084	0.69
10.610	114171	0.72
10.613	122458	0.77
10.617	133531	0.84
10.620	146899	0.92
10.623	163059	1.02
10.627	181421	1.14
10.630	203958	1.28
10.633	229701	1.44
10.637	254272	1.60
10.640	276914	1.74
10.643	299274	1.88
10.647	319006	2.00
10.650	333540	2.10
10.653	338413	2.13
10.657	332593	2.09
10.660	321054	2.02
10.663	305015	1.92
10.667	282426	1.78
10.670	254296	1.60
10.673	224141	1.41
10.677	196556	1.24
10.680	172628	1.08
10.683	154018	0.97
10.687	141649	0.89
10.690	133478	0.84
10.693	129733	0.82
10.697	131013	0.82
10.700	136615	0.86
10.703	142925	0.90
10.707	150539	0.95
10.710	159237	1.00
10.713	169111	1.06
10.717	177191	1.11
10.720	184391	1.16
10.723	192059	1.21
10.727	196863	1.24
10.730	196926	1.24
10.733	192216	1.21
10.737	183447	1.15
10.740	173994	1.09
10.743	166132	1.04
10.747	159152	1.00
10.750	151932	0.95
10.753	147385	0.93
10.757	148165	0.93
10.760	155916	0.98
10.763	166141	1.04
10.767	176972	1.11
10.770	185550	1.17
10.773	190621	1.20
10.777	192280	1.21
10.780	189719	1.19
10.783	181763	1.14
10.787	171157	1.08
10.790	157269	0.99
10.793	142346	0.89
10.797	129469	0.81
10.800	118519	0.74
10.803	110818	0.70
10.807	106323	0.67
10.810	105273	0.66
10.813	106362	0.67
10.817	110867	0.70
10.820	118398	0.74
10.823	127232	0.80
10.827	138286	0.87
10.830	149422	0.94
10.833	159317	1.00
10.837	169031	1.06
10.840	178672	1.12
10.843	189720	1.19
10.847	201894	1.27
10.850	212726	1.34
10.853	222740	1.40
10.857	233269	1.47
10.860	244962	1.54
10.863	257223	1.62
10.867	269098	1.69
10.870	283157	1.78
10.873	303449	1.91
10.877	336124	2.11
10.880	396434	2.49
10.883	503038	3.16
10.887	674934	4.24
10.890	934392	5.87
10.893	1311859	8.25
10.897	1834826	11.53
10.900	2513626	15.80
10.903	3321136	20.87
10.907	4197191	26.38
10.910	5101650	32.06
10.913	6001397	37.72
10.917	6879198	43.24
10.920	7790092	48.96
10.923	8748419	54.98
10.927	9615980	60.44
10.930	10343140	65.01
10.933	11019625	69.26
10.937	11606088	72.95
10.940	12083069	75.94
10.943	12475733	78.41
10.947	12674218	79.66
10.950	12605732	79.23
10.953	12262521	77.07
10.957	11535333	72.50
10.960	10247487	64.41
10.963	8381256	52.68
10.967	6174454	38.81
10.970	4085651	25.68
10.973	2509536	15.77
10.977	1517538	9.54
10.980	964494	6.06
10.983	670955	4.22
10.987	517177	3.25
10.990	434317	2.73
10.993	384586	2.42
10.997	350890	2.21
11.000	324609	2.04
11.003	303372	1.91
11.007	286632	1.80
11.010	272853	1.71
11.013	262750	1.65
11.017	259659	1.63
11.020	260345	1.64
11.023	261598	1.64
11.027	263264	1.65
11.030	265036	1.67
11.033	264920	1.67
11.037	260898	1.64
11.040	254577	1.60
11.043	244738	1.54
11.047	231623	1.46
11.050	218576	1.37
11.053	208472	1.31
11.057	200515	1.26
11.060	192883	1.21
11.063	186113	1.17
11.067	180434	1.13
11.070	177956	1.12
11.073	180175	1.13
11.077	187651	1.18
11.080	203904	1.28
11.083	235742	1.48
11.087	292433	1.84
11.090	383910	2.41
11.093	523207	3.29
11.097	720657	4.53
11.100	974463	6.12
11.103	1275376	8.02
11.107	1624313	10.21
11.110	1996868	12.55
11.113	2336522	14.69
11.117	2606229	16.38
11.120	2777696	17.46
11.123	2827415	17.77
11.127	2756306	17.32
11.130	2587279	16.26
11.133	2333466	14.67
11.137	2005587	12.61
11.140	1638548	10.30
11.143	1272589	8.00
11.147	953128	5.99
11.150	706044	4.44
11.153	524626	3.30
11.157	397983	2.50
11.160	311865	1.96
11.163	250832	1.58
11.167	205099	1.29
11.170	172497	1.08
11.173	148604	0.93
11.177	130641	0.82
11.180	116602	0.73
11.183	107171	0.67
11.187	101404	0.64
11.190	99589	0.63
11.193	99394	0.62
11.197	99429	0.62
11.200	99907	0.63
11.203	101271	0.64
11.207	103233	0.65
11.210	104772	0.66
11.213	106360	0.67
11.217	107068	0.67
11.220	107633	0.68
11.223	109962	0.69
11.227	112172	0.71
11.230	112335	0.71
11.233	112138	0.70
11.237	112224	0.71
11.240	112252	0.71
11.243	111467	0.70
11.247	109897	0.69
11.250	109269	0.69
11.253	110315	0.69
11.257	112442	0.71
11.260	115978	0.73
11.263	120659	0.76
11.267	126943	0.80
11.270	133771	0.84
11.273	142174	0.89
11.277	152902	0.96
11.280	165814	1.04
11.283	180723	1.14
11.287	200309	1.26
11.290	224804	1.41
11.293	251194	1.58
11.297	278409	1.75
11.300	306994	1.93
11.303	335599	2.11
11.307	361727	2.27
11.310	379244	2.38
11.313	384228	2.41
11.317	377635	2.37
11.320	361727	2.27
11.323	339119	2.13
11.327	314202	1.97
11.330	294657	1.85
11.333	282953	1.78
11.337	277310	1.74
11.340	281278	1.77
11.343	291483	1.83
11.347	304210	1.91
11.350	323126	2.03
11.353	343139	2.16
11.357	354856	2.23
11.360	355560	2.23
11.363	350514	2.20
11.367	338329	2.13
11.370	318429	2.00
11.373	292876	1.84
11.377	264393	1.66
11.380	237453	1.49
11.383	215480	1.35
11.387	198751	1.25
11.390	188119	1.18
11.393	184664	1.16
11.397	186182	1.17
11.400	190979	1.20
11.403	197929	1.24
11.407	204704	1.29
11.410	208299	1.31
11.413	208462	1.31
11.417	205164	1.29
11.420	197907	1.24
11.423	185051	1.16
11.427	170374	1.07
11.430	155778	0.98
11.433	142688	0.90
11.437	133623	0.84
11.440	127696	0.80
11.443	125866	0.79
11.447	130878	0.82
11.450	140599	0.88
11.453	153082	0.96
11.457	168173	1.06
11.460	183545	1.15
11.463	196400	1.23
11.467	205611	1.29
11.470	208537	1.31
11.473	205921	1.29
11.477	198762	1.25
11.480	188319	1.18
11.483	176916	1.11
11.487	163759	1.03
11.490	150497	0.95
11.493	139475	0.88
11.497	130325	0.82
11.500	123097	0.77
11.503	118837	0.75
11.507	118656	0.75
11.510	123101	0.77
11.513	132928	0.84
11.517	145739	0.92
11.520	160790	1.01
11.523	177218	1.11
11.527	191572	1.20
11.530	202418	1.27
11.533	208080	1.31
11.537	205876	1.29
11.540	195674	1.23
11.543	178938	1.12
11.547	160492	1.01
11.550	143073	0.90
11.553	129360	0.81
11.557	117965	0.74
11.560	109130	0.69
11.563	105481	0.66
11.567	105491	0.66
11.570	108353	0.68
11.573	111743	0.70
11.577	117907	0.74
11.580	126277	0.79
11.583	137555	0.86
11.587	153509	0.96
11.590	177578	1.12
11.593	210396	1.32
11.597	248121	1.56
11.600	287211	1.81
11.603	324467	2.04
11.607	355465	2.23
11.610	377418	2.37
11.613	391593	2.46
11.617	405043	2.55
11.620	428523	2.69
11.623	477534	3.00
11.627	573515	3.60
11.630	740572	4.65
11.633	994937	6.25
11.637	1347820	8.47
11.640	1808693	11.37
11.643	2357502	14.82
11.647	2950391	18.54
11.650	3560886	22.38
11.653	4177567	26.26
11.657	4796155	30.14
11.660	5382918	33.83
11.663	5849138	36.76
11.667	6172219	38.79
11.670	6327000	39.77
11.673	6242352	39.23
11.677	5927782	37.26
11.680	5403989	33.96
11.683	4714635	29.63
11.687	3936513	24.74
11.690	3148475	19.79
11.693	2442072	15.35
11.697	1872806	11.77
11.700	1460384	9.18
11.703	1188526	7.47
11.707	1006149	6.32
11.710	871736	5.48
11.713	760977	4.78
11.717	661861	4.16
11.720	567352	3.57
11.723	475636	2.99
11.727	388874	2.44
11.730	313087	1.97
11.733	254883	1.60
11.737	213574	1.34
11.740	184663	1.16
11.743	165981	1.04
11.747	158153	0.99
11.750	158179	0.99
11.753	165024	1.04
11.757	176909	1.11
11.760	196956	1.24
11.763	226027	1.42
11.767	262890	1.65
11.770	307111	1.93
11.773	355880	2.24
11.777	400923	2.52
11.780	437072	2.75
11.783	461368	2.90
11.787	471213	2.96
11.790	469297	2.95
11.793	460121	2.89
11.797	442778	2.78
11.800	422693	2.66
11.803	403735	2.54
11.807	383777	2.41
11.810	365523	2.30
11.813	352931	2.22
11.817	345224	2.17
11.820	338264	2.13
11.823	329495	2.07
11.827	322271	2.03
11.830	319115	2.01
11.833	317382	1.99
11.837	316533	1.99
11.840	315811	1.98
11.843	311916	1.96
11.847	303652	1.91
11.850	293240	1.84
11.853	285686	1.80
11.857	282322	1.77
11.860	282085	1.77
11.863	282422	1.78
11.867	282592	1.78
11.870	282025	1.77
11.873	275813	1.73
11.877	265785	1.67
11.880	249552	1.57
11.883	228380	1.44
11.887	206148	1.30
11.890	185156	1.16
11.893	168342	1.06
11.897	156010	0.98
11.900	147704	0.93
11.903	142174	0.89
11.907	141828	0.89
11.910	142034	0.89
11.913	144946	0.91
11.917	149863	0.94
11.920	153150	0.96
11.923	157062	0.99
11.927	164403	1.03
11.930	168691	1.06
11.933	168681	1.06
11.937	167913	1.06
11.940	164966	1.04
11.943	160526	1.01
11.947	154903	0.97
11.950	151149	0.95
11.953	148725	0.93
11.957	148386	0.93
11.960	152873	0.96
11.963	164456	1.03
11.967	183975	1.16
11.970	215410	1.35
11.973	262240	1.65
11.977	327501	2.06
11.980	424262	2.67
11.983	564664	3.55
11.987	749181	4.71
11.990	978648	6.15
11.993	1253047	7.88
11.997	1578355	9.92
12.000	1933039	12.15
12.003	2278600	14.32
12.007	2584247	16.24
12.010	2820521	17.73
12.013	2973585	18.69
12.017	3017898	18.97
12.020	2931612	18.43
12.023	2755067	17.32
12.027	2510887	15.78
12.030	2219728	13.95
12.033	1895701	11.91
12.037	1574377	9.90
12.040	1292169	8.12
12.043	1065775	6.70
12.047	885971	5.57
12.050	749153	4.71
12.053	647772	4.07
12.057	573042	3.60
12.060	522329	3.28
12.063	485887	3.05
12.067	448905	2.82
12.070	412749	2.59
12.073	378323	2.38
12.077	341953	2.15
12.080	304447	1.91
12.083	270235	1.70
12.087	243376	1.53
12.090	223249	1.40
12.093	209872	1.32
12.097	208747	1.31
12.100	218508	1.37
12.103	235244	1.48
12.107	258020	1.62
12.110	284407	1.79
12.113	311502	1.96
12.117	333187	2.09
12.120	343853	2.16
12.123	342340	2.15
12.127	327254	2.06
12.130	301167	1.89
12.133	269220	1.69
12.137	235307	1.48
12.140	207472	1.30
12.143	189353	1.19
12.147	179470	1.13
12.150	176697	1.11
12.153	179534	1.13
12.157	184506	1.16
12.160	189567	1.19
12.163	191008	1.20
12.167	185908	1.17
12.170	176681	1.11
12.173	163670	1.03
12.177	147941	0.93
12.180	131836	0.83
12.183	116823	0.73
12.187	105488	0.66
12.190	97586	0.61
12.193	92990	0.58
12.197	89749	0.56
12.200	89002	0.56
12.203	89321	0.56
12.207	91460	0.57
12.210	93253	0.59
12.213	94541	0.59
12.217	97148	0.61
12.220	97795	0.61
12.223	97922	0.62
12.227	99464	0.63
12.230	101268	0.64
12.233	102659	0.65
12.237	106154	0.67
12.240	111268	0.70
12.243	116707	0.73
12.247	123823	0.78
12.250	132311	0.83
12.253	141950	0.89
12.257	152752	0.96
12.260	163703	1.03
12.263	174063	1.09
12.267	183473	1.15
12.270	191424	1.20
12.273	196171	1.23
12.277	198855	1.25
12.280	201601	1.27
12.283	201878	1.27
12.287	199686	1.26
12.290	196190	1.23
12.293	191478	1.20
12.297	187516	1.18
12.300	187497	1.18
12.303	194359	1.22
12.307	212927	1.34
12.310	248047	1.56
12.313	306039	1.92
12.317	393722	2.47
12.320	515042	3.24
12.323	673207	4.23
12.327	864104	5.43
12.330	1070558	6.73
12.333	1270927	7.99
12.337	1435693	9.02
12.340	1539381	9.68
12.343	1570506	9.87
12.347	1531373	9.62
12.350	1432163	9.00
12.353	1281536	8.05
12.357	1082509	6.80
12.360	864129	5.43
12.363	667982	4.20
12.367	509283	3.20
12.370	390658	2.46
12.373	306101	1.92
12.377	250109	1.57
12.380	222125	1.40
12.383	221064	1.39
12.387	245769	1.54
12.390	298018	1.87
12.393	384192	2.41
12.397	512662	3.22
12.400	696067	4.37
12.403	952901	5.99
12.407	1289423	8.10
12.410	1689569	10.62
12.413	2123133	13.34
12.417	2551421	16.04
12.420	2935882	18.45
12.423	3215275	20.21
12.427	3337414	20.98
12.430	3295610	20.71
12.433	3088093	19.41
12.437	2744959	17.25
12.440	2315262	14.55
12.443	1870353	11.76
12.447	1467020	9.22
12.450	1111701	6.99
12.453	816235	5.13
12.457	593576	3.73
12.460	443469	2.79
12.463	351614	2.21
12.467	298051	1.87
12.470	268831	1.69
12.473	254231	1.60
12.477	249763	1.57
12.480	249857	1.57
12.483	249856	1.57
12.487	247687	1.56
12.490	240883	1.51
12.493	228800	1.44
12.497	211637	1.33
12.500	192388	1.21
12.503	177953	1.12
12.507	170350	1.07
12.510	171179	1.08
12.513	191902	1.21
12.517	244191	1.53
12.520	340614	2.14
12.523	488557	3.07
12.527	699155	4.39
12.530	977390	6.14
12.533	1316558	8.27
12.537	1705671	10.72
12.540	2107915	13.25
12.543	2483697	15.61
12.547	2816082	17.70
12.550	3064159	19.26
12.553	3221222	20.25
12.557	3334649	20.96
12.560	3424680	21.52
12.563	3511469	22.07
12.567	3608091	22.68
12.570	3733630	23.47
12.573	3878447	24.38
12.577	3985682	25.05
12.580	4018331	25.26
12.583	3927292	24.68
12.587	3696345	23.23
12.590	3346857	21.04
12.593	2897822	18.21
12.597	2406958	15.13
12.600	1918247	12.06
12.603	1476713	9.28
12.607	1111879	6.99
12.610	834442	5.24
12.613	643266	4.04
12.617	526809	3.31
12.620	468734	2.95
12.623	461276	2.90
12.627	498082	3.13
12.630	566774	3.56
12.633	653988	4.11
12.637	744693	4.68
12.640	817509	5.14
12.643	857633	5.39
12.647	862727	5.42
12.650	831302	5.22
12.653	755256	4.75
12.657	638930	4.02
12.660	513425	3.23
12.663	401784	2.53
12.667	308841	1.94
12.670	238155	1.50
12.673	189579	1.19
12.677	159083	1.00
12.680	140487	0.88
12.683	128706	0.81
12.687	123028	0.77
12.690	119818	0.75
12.693	118522	0.74
12.697	118447	0.74
12.700	118478	0.74
12.703	118518	0.74
12.707	119638	0.75
12.710	123199	0.77
12.713	131912	0.83
12.717	149982	0.94
12.720	183976	1.16
12.723	241414	1.52
12.727	329844	2.07
12.730	462063	2.90
12.733	642497	4.04
12.737	861229	5.41
12.740	1103281	6.93
12.743	1350265	8.49
12.747	1583234	9.95
12.750	1781148	11.19
12.753	1931492	12.14
12.757	2018328	12.69
12.760	2022752	12.71
12.763	1945362	12.23
12.767	1784521	11.22
12.770	1564111	9.83
12.773	1328715	8.35
12.777	1087111	6.83
12.780	853524	5.36
12.783	653791	4.11
12.787	496417	3.12
12.790	378425	2.38
12.793	295675	1.86
12.797	241793	1.52
12.800	208194	1.31
12.803	189821	1.19
12.807	181774	1.14
12.810	178652	1.12
12.813	176059	1.11
12.817	174018	1.09
12.820	172038	1.08
12.823	171833	1.08
12.827	171767	1.08
12.830	171712	1.08
12.833	171877	1.08
12.837	174356	1.10
12.840	178947	1.12
12.843	186918	1.17
12.847	197419	1.24
12.850	207408	1.30
12.853	217925	1.37
12.857	233238	1.47
12.860	257565	1.62
12.863	297434	1.87
12.867	357846	2.25
12.870	443318	2.79
12.873	558556	3.51
12.877	697792	4.39
12.880	839477	5.28
12.883	958750	6.03
12.887	1032276	6.49
12.890	1041392	6.55
12.893	986517	6.20
12.897	885351	5.56
12.900	762155	4.79
12.903	635026	3.99
12.907	513279	3.23
12.910	409727	2.58
12.913	334249	2.10
12.917	283097	1.78
12.920	249736	1.57
12.923	227669	1.43
12.927	213314	1.34
12.930	204011	1.28
12.933	195417	1.23
12.937	186436	1.17
12.940	178331	1.12
12.943	172148	1.08
12.947	168045	1.06
12.950	166950	1.05
12.953	167185	1.05
12.957	172551	1.08
12.960	182584	1.15
12.963	198738	1.25
12.967	231780	1.46
12.970	296307	1.86
12.973	409655	2.57
12.977	586102	3.68
12.980	836043	5.25
12.983	1158464	7.28
12.987	1525195	9.59
12.990	1913877	12.03
12.993	2313650	14.54
12.997	2650569	16.66
13.000	2853561	17.93
13.003	2912890	18.31
13.007	2821942	17.74
13.010	2591499	16.29
13.013	2264625	14.23
13.017	1874068	11.78
13.020	1474366	9.27
13.023	1117710	7.02
13.027	836081	5.25
13.030	649894	4.08
13.033	560947	3.53
13.037	574751	3.61
13.040	695469	4.37
13.043	912954	5.74
13.047	1202084	7.56
13.050	1545036	9.71
13.053	1916446	12.05
13.057	2261277	14.21
13.060	2532633	15.92
13.063	2689767	16.91
13.067	2694270	16.93
13.070	2552780	16.04
13.073	2289296	14.39
13.077	1934626	12.16
13.080	1554317	9.77
13.083	1194009	7.50
13.087	886323	5.57
13.090	649941	4.08
13.093	480637	3.02
13.097	370087	2.33
13.100	310180	1.95
13.103	291164	1.83
13.107	305363	1.92
13.110	348811	2.19
13.113	420550	2.64
13.117	513472	3.23
13.120	617622	3.88
13.123	718591	4.52
13.127	799671	5.03
13.130	851081	5.35
13.133	861794	5.42
13.137	825337	5.19
13.140	751684	4.72
13.143	655032	4.12
13.147	551276	3.46
13.150	452214	2.84
13.153	364077	2.29
13.157	295060	1.85
13.160	251012	1.58
13.163	237732	1.49
13.167	261664	1.64
13.170	334720	2.10
13.173	473557	2.98
13.177	697395	4.38
13.180	1036338	6.51
13.183	1497850	9.41
13.187	2045648	12.86
13.190	2644866	16.62
13.193	3253448	20.45
13.197	3774333	23.72
13.200	4137649	26.01
13.203	4354310	27.37
13.207	4401334	27.66
13.210	4263316	26.80
13.213	3986060	25.05
13.217	3610775	22.69
13.220	3204919	20.14
13.223	2833058	17.81
13.227	2525112	15.87
13.230	2255368	14.18
13.233	1986969	12.49
13.237	1699560	10.68
13.240	1415339	8.90
13.243	1143301	7.19
13.247	897998	5.64
13.250	696873	4.38
13.253	539613	3.39
13.257	420020	2.64
13.260	334287	2.10
13.263	277858	1.75
13.267	248165	1.56
13.270	240245	1.51
13.273	247944	1.56
13.277	271995	1.71
13.280	313501	1.97
13.283	371074	2.33
13.287	441041	2.77
13.290	515497	3.24
13.293	584470	3.67
13.297	631302	3.97
13.300	646010	4.06
13.303	634786	3.99
13.307	601710	3.78
13.310	548517	3.45
13.313	487730	3.07
13.317	431008	2.71
13.320	385094	2.42
13.323	352238	2.21
13.327	332476	2.09
13.330	324096	2.04
13.333	318213	2.00
13.337	309773	1.95
13.340	298446	1.88
13.343	281794	1.77
13.347	263297	1.65
13.350	247477	1.56
13.353	232836	1.46
13.357	220480	1.39
13.360	212242	1.33
13.363	209502	1.32
13.367	209438	1.32
13.370	212081	1.33
13.373	217318	1.37
13.377	221371	1.39
13.380	220512	1.39
13.383	212205	1.33
13.387	200846	1.26
13.390	187794	1.18
13.393	172908	1.09
13.397	157123	0.99
13.400	144675	0.91
13.403	137351	0.86
13.407	132613	0.83
13.410	130012	0.82
13.413	128151	0.81
13.417	123227	0.77
13.420	118678	0.75
13.423	114771	0.72
13.427	111772	0.70
13.430	111210	0.70
13.433	114617	0.72
13.437	122831	0.77
13.440	133935	0.84
13.443	147819	0.93
13.447	162287	1.02
13.450	176540	1.11
13.453	191051	1.20
13.457	205500	1.29
13.460	217356	1.37
13.463	227358	1.43
13.467	235776	1.48
13.470	241462	1.52
13.473	245702	1.54
13.477	247203	1.55
13.480	246308	1.55
13.483	239478	1.51
13.487	227343	1.43
13.490	215379	1.35
13.493	205813	1.29
13.497	201890	1.27
13.500	205594	1.29
13.503	223530	1.40
13.507	270334	1.70
13.510	362811	2.28
13.513	520593	3.27
13.517	762561	4.79
13.520	1098886	6.91
13.523	1516642	9.53
13.527	1984852	12.47
13.530	2461190	15.47
13.533	2862788	17.99
13.537	3115213	19.58
13.540	3190951	20.06
13.543	3064488	19.26
13.547	2740685	17.23
13.550	2313750	14.54
13.553	1892823	11.90
13.557	1527287	9.60
13.560	1236082	7.77
13.563	1013227	6.37
13.567	850994	5.35
13.570	735859	4.62
13.573	643927	4.05
13.577	570183	3.58
13.580	510176	3.21
13.583	466679	2.93
13.587	444512	2.79
13.590	450299	2.83
13.593	498000	3.13
13.597	594082	3.73
13.600	736073	4.63
13.603	904482	5.68
13.607	1070716	6.73
13.610	1216424	7.65
13.613	1333142	8.38
13.617	1395961	8.77
13.620	1372923	8.63
13.623	1277320	8.03
13.627	1140351	7.17
13.630	971833	6.11
13.633	787783	4.95
13.637	616066	3.87
13.640	475800	2.99
13.643	372746	2.34
13.647	302292	1.90
13.650	252262	1.59
13.653	216429	1.36
13.657	193863	1.22
13.660	179370	1.13
13.663	167696	1.05
13.667	160181	1.01
13.670	155245	0.98
13.673	153987	0.97
13.677	154241	0.97
13.680	157633	0.99
13.683	161690	1.02
13.687	167544	1.05
13.690	173923	1.09
13.693	179432	1.13
13.697	183537	1.15
13.700	186284	1.17
13.703	188875	1.19
13.707	191959	1.21
13.710	193455	1.22
13.713	193775	1.22
13.717	194736	1.22
13.720	196326	1.23
13.723	198330	1.25
13.727	198450	1.25
13.730	197569	1.24
13.733	196168	1.23
13.737	193815	1.22
13.740	193600	1.22
13.743	196186	1.23
13.747	201231	1.26
13.750	209880	1.32
13.753	221028	1.39
13.757	231816	1.46
13.760	239823	1.51
13.763	241508	1.52
13.767	241057	1.52
13.770	241906	1.52
13.773	244975	1.54
13.777	248126	1.56
13.780	252038	1.58
13.783	261811	1.65
13.787	277795	1.75
13.790	294349	1.85
13.793	304593	1.91
13.797	304967	1.92
13.800	298477	1.88
13.803	283545	1.78
13.807	261999	1.65
13.810	240010	1.51
13.813	221171	1.39
13.817	210681	1.32
13.820	212199	1.33
13.823	228369	1.44
13.827	257512	1.62
13.830	292935	1.84
13.833	328754	2.07
13.837	359961	2.26
13.840	379913	2.39
13.843	385449	2.42
13.847	379789	2.39
13.850	378569	2.38
13.853	405530	2.55
13.857	481099	3.02
13.860	620003	3.90
13.863	843301	5.30
13.867	1160057	7.29
13.870	1540223	9.68
13.873	1942981	12.21
13.877	2323969	14.61
13.880	2624475	16.50
13.883	2844820	17.88
13.887	2948857	18.53
13.890	2844644	17.88
13.893	2570991	16.16
13.897	2207175	13.87
13.900	1795030	11.28
13.903	1393838	8.76
13.907	1038055	6.52
13.910	745645	4.69
13.913	535896	3.37
13.917	403265	2.53
13.920	331195	2.08
13.923	319780	2.01
13.927	379313	2.38
13.930	522824	3.29
13.933	764787	4.81
13.937	1105619	6.95
13.940	1546499	9.72
13.943	2073919	13.03
13.947	2614054	16.43
13.950	3096786	19.46
13.953	3510249	22.06
13.957	3798345	23.87
13.960	3879560	24.38
13.963	3707643	23.30
13.967	3314446	20.83
13.970	2810599	17.66
13.973	2259689	14.20
13.977	1708179	10.74
13.980	1239267	7.79
13.983	899193	5.65
13.987	676002	4.25
13.990	536012	3.37
13.993	460513	2.89
13.997	431853	2.71
14.000	424538	2.67
14.003	416510	2.62
14.007	396212	2.49
14.010	363465	2.28
14.013	323030	2.03
14.017	277869	1.75
14.020	234231	1.47
14.023	197788	1.24
14.027	169395	1.06
14.030	149055	0.94
14.033	136602	0.86
14.037	130370	0.82
14.040	130382	0.82
14.043	138375	0.87
14.047	157023	0.99
14.050	189543	1.19
14.053	238221	1.50
14.057	297481	1.87
14.060	356491	2.24
14.063	409624	2.57
14.067	450802	2.83
14.070	470414	2.96
14.073	463564	2.91
14.077	433859	2.73
14.080	391885	2.46
14.083	345736	2.17
14.087	300443	1.89
14.090	266183	1.67
14.093	247312	1.55
14.097	241124	1.52
14.100	243501	1.53
14.103	247315	1.55
14.107	249404	1.57
14.110	243723	1.53
14.113	227773	1.43
14.117	207901	1.31
14.120	188798	1.19
14.123	169918	1.07
14.127	155159	0.98
14.130	146266	0.92
14.133	143639	0.90
14.137	146732	0.92
14.140	155585	0.98
14.143	165730	1.04
14.147	173859	1.09
14.150	178848	1.12
14.153	180185	1.13
14.157	178283	1.12
14.160	172903	1.09
14.163	163686	1.03
14.167	151393	0.95
14.170	139627	0.88
14.173	131742	0.83
14.177	127876	0.80
14.180	127990	0.80
14.183	131784	0.83
14.187	137223	0.86
14.190	145669	0.92
14.193	155831	0.98
14.197	170134	1.07
14.200	189782	1.19
14.203	214824	1.35
14.207	245125	1.54
14.210	281429	1.77
14.213	319713	2.01
14.217	351163	2.21
14.220	369887	2.32
14.223	371791	2.34
14.227	357918	2.25
14.230	333082	2.09
14.233	305409	1.92
14.237	285473	1.79
14.240	288483	1.81
14.243	323803	2.04
14.247	390846	2.46
14.250	485569	3.05
14.253	595831	3.74
14.257	708410	4.45
14.260	809517	5.09
14.263	869379	5.46
14.267	875960	5.51
14.270	840141	5.28
14.273	768930	4.83
14.277	676155	4.25
14.280	578649	3.64
14.283	489033	3.07
14.287	412945	2.60
14.290	349137	2.19
14.293	295205	1.86
14.297	248705	1.56
14.300	214531	1.35
14.303	196959	1.24
14.307	194307	1.22
14.310	204172	1.28
14.313	227420	1.43
14.317	264335	1.66
14.320	313798	1.97
14.323	378232	2.38
14.327	464663	2.92
14.330	582066	3.66
14.333	734766	4.62
14.337	921607	5.79
14.340	1143323	7.19
14.343	1394163	8.76
14.347	1654621	10.40
14.350	1895499	11.91
14.353	2096647	13.18
14.357	2248112	14.13
14.360	2326229	14.62
14.363	2331727	14.66
14.367	2278492	14.32
14.370	2163007	13.59
14.373	1967398	12.37
14.377	1706431	10.73
14.380	1426945	8.97
14.383	1174302	7.38
14.387	961909	6.05
14.390	782429	4.92
14.393	640649	4.03
14.397	538029	3.38
14.400	459044	2.89
14.403	402268	2.53
14.407	377772	2.37
14.410	387854	2.44
14.413	424708	2.67
14.417	491387	3.09
14.420	596521	3.75
14.423	713082	4.48
14.427	814109	5.12
14.430	888199	5.58
14.433	916819	5.76
14.437	880330	5.53
14.440	784392	4.93
14.443	665485	4.18
14.447	540267	3.40
14.450	418509	2.63
14.453	316975	1.99
14.457	242391	1.52
14.460	194442	1.22
14.463	169859	1.07
14.467	165764	1.04
14.470	179417	1.13
14.473	209548	1.32
14.477	255717	1.61
14.480	314418	1.98
14.483	378864	2.38
14.487	435957	2.74
14.490	471592	2.96
14.493	482401	3.03
14.497	471479	2.96
14.500	451530	2.84
14.503	441368	2.77
14.507	464706	2.92
14.510	549608	3.45
14.513	717239	4.51
14.517	970866	6.10
14.520	1294195	8.13
14.523	1647463	10.35
14.527	1976796	12.42
14.530	2244850	14.11
14.533	2418964	15.20
14.537	2442209	15.35
14.540	2315231	14.55
14.543	2075411	13.04
14.547	1767142	11.11
14.550	1464963	9.21
14.553	1224810	7.70
14.557	1070324	6.73
14.560	1025876	6.45
14.563	1095203	6.88
14.567	1265040	7.95
14.570	1509955	9.49
14.573	1768247	11.11
14.577	1978924	12.44
14.580	2110734	13.27
14.583	2174557	13.67
14.587	2187254	13.75
14.590	2149953	13.51
14.593	2078024	13.06
14.597	1972514	12.40
14.600	1837837	11.55
14.603	1705944	10.72
14.607	1592640	10.01
14.610	1487453	9.35
14.613	1372050	8.62
14.617	1246614	7.84
14.620	1120400	7.04
14.623	984329	6.19
14.627	833183	5.24
14.630	678482	4.26
14.633	536384	3.37
14.637	416974	2.62
14.640	323008	2.03
14.643	258415	1.62
14.647	221510	1.39
14.650	201867	1.27
14.653	190854	1.20
14.657	184093	1.16
14.660	181134	1.14
14.663	183804	1.16
14.667	193123	1.21
14.670	211617	1.33
14.673	242870	1.53
14.677	292040	1.84
14.680	362298	2.28
14.683	452961	2.85
14.687	559474	3.52
14.690	668905	4.20
14.693	769103	4.83
14.697	843867	5.30
14.700	879217	5.53
14.703	886060	5.57
14.707	886109	5.57
14.710	900340	5.66
14.713	943817	5.93
14.717	1015118	6.38
14.720	1095187	6.88
14.723	1163046	7.31
14.727	1202146	7.56
14.730	1198223	7.53
14.733	1136389	7.14
14.737	1022028	6.42
14.740	880899	5.54
14.743	733746	4.61
14.747	594427	3.74
14.750	474355	2.98
14.753	381703	2.40
14.757	314218	1.97
14.760	265155	1.67
14.763	233491	1.47
14.767	215254	1.35
14.770	209134	1.31
14.773	219686	1.38
14.777	250344	1.57
14.780	304942	1.92
14.783	385649	2.42
14.787	489593	3.08
14.790	604868	3.80
14.793	710643	4.47
14.797	786971	4.95
14.800	817206	5.14
14.803	805752	5.06
14.807	771212	4.85
14.810	725253	4.56
14.813	680672	4.28
14.817	645895	4.06
14.820	622661	3.91
14.823	606426	3.81
14.827	589851	3.71
14.830	570288	3.58
14.833	548438	3.45
14.837	533006	3.35
14.840	525708	3.30
14.843	521961	3.28
14.847	525451	3.30
14.850	532995	3.35
14.853	540574	3.40
14.857	551989	3.47
14.860	569879	3.58
14.863	584990	3.68
14.867	588743	3.70
14.870	576791	3.63
14.873	545393	3.43
14.877	492249	3.09
14.880	428381	2.69
14.883	369223	2.32
14.887	322220	2.03
14.890	290204	1.82
14.893	283685	1.78
14.897	306738	1.93
14.900	355280	2.23
14.903	429005	2.70
14.907	517530	3.25
14.910	591098	3.72
14.913	626987	3.94
14.917	619983	3.90
14.920	573697	3.61
14.923	497275	3.13
14.927	406304	2.55
14.930	316398	1.99
14.933	241042	1.51
14.937	189445	1.19
14.940	160162	1.01
14.943	145233	0.91
14.947	142736	0.90
14.950	148127	0.93
14.953	155129	0.98
14.957	160281	1.01
14.960	161299	1.01
14.963	160946	1.01
14.967	160265	1.01
14.970	160808	1.01
14.973	167033	1.05
14.977	184179	1.16
14.980	217040	1.36
14.983	268700	1.69
14.987	340713	2.14
14.990	432908	2.72
14.993	536435	3.37
14.997	632572	3.98
15.000	711214	4.47
15.003	765184	4.81
15.007	772179	4.85
15.010	723801	4.55
15.013	637155	4.00
15.017	533871	3.36
15.020	431850	2.71
15.023	338750	2.13
15.027	263671	1.66
15.030	210534	1.32
15.033	174244	1.10
15.037	148159	0.93
15.040	130059	0.82
15.043	118909	0.75
15.047	111565	0.70
15.050	107314	0.67
15.053	105818	0.67
15.057	106076	0.67
15.060	109090	0.69
15.063	113822	0.72
15.067	121376	0.76
15.070	130010	0.82
15.073	136168	0.86
15.077	142794	0.90
15.080	149997	0.94
15.083	154985	0.97
15.087	158623	1.00
15.090	160381	1.01
15.093	160434	1.01
15.097	160179	1.01
15.100	160124	1.01
15.103	158467	1.00
15.107	155417	0.98
15.110	154304	0.97
15.113	151919	0.95
15.117	150908	0.95
15.120	151575	0.95
15.123	153413	0.96
15.127	154845	0.97
15.130	155122	0.97
15.133	154805	0.97
15.137	152801	0.96
15.140	150436	0.95
15.143	145566	0.91
15.147	137801	0.87
15.150	132399	0.83
15.153	130911	0.82
15.157	131131	0.82
15.160	134867	0.85
15.163	140350	0.88
15.167	147123	0.92
15.170	154561	0.97
15.173	161184	1.01
15.177	168819	1.06
15.180	178832	1.12
15.183	197826	1.24
15.187	229831	1.44
15.190	275329	1.73
15.193	332907	2.09
15.197	400546	2.52
15.200	469829	2.95
15.203	523222	3.29
15.207	552117	3.47
15.210	553081	3.48
15.213	527834	3.32
15.217	481407	3.03
15.220	424274	2.67
15.223	373102	2.34
15.227	337203	2.12
15.230	322876	2.03
15.233	334048	2.10
15.237	372881	2.34
15.240	443955	2.79
15.243	553243	3.48
15.247	714641	4.49
15.250	943469	5.93
15.253	1236759	7.77
15.257	1581312	9.94
15.260	1959570	12.32
15.263	2353979	14.79
15.267	2732472	17.17
15.270	3014437	18.95
15.273	3155448	19.83
15.277	3150434	19.80
15.280	2995269	18.83
15.283	2717475	17.08
15.287	2353963	14.79
15.290	1947528	12.24
15.293	1561333	9.81
15.297	1222193	7.68
15.300	949350	5.97
15.303	755369	4.75
15.307	619650	3.89
15.310	527774	3.32
15.313	466818	2.93
15.317	431307	2.71
15.320	422303	2.65
15.323	427530	2.69
15.327	436156	2.74
15.330	445989	2.80
15.333	450898	2.83
15.337	442523	2.78
15.340	420594	2.64
15.343	391023	2.46
15.347	357747	2.25
15.350	324062	2.04
15.353	292271	1.84
15.357	263916	1.66
15.360	240678	1.51
15.363	224635	1.41
15.367	215898	1.36
15.370	215072	1.35
15.373	226162	1.42
15.377	258240	1.62
15.380	314546	1.98
15.383	391622	2.46
15.387	485130	3.05
15.390	587697	3.69
15.393	684915	4.30
15.397	761288	4.78
15.400	810123	5.09
15.403	844258	5.31
15.407	870946	5.47
15.410	888623	5.59
15.413	909894	5.72
15.417	936957	5.89
15.420	975065	6.13
15.423	1036728	6.52
15.427	1112877	6.99
15.430	1192107	7.49
15.433	1275414	8.02
15.437	1353897	8.51
15.440	1419926	8.92
15.443	1448908	9.11
15.447	1406951	8.84
15.450	1290995	8.11
15.453	1116621	7.02
15.457	909239	5.71
15.460	701566	4.41
15.463	521254	3.28
15.467	379937	2.39
15.470	279222	1.75
15.473	217698	1.37
15.477	185950	1.17
15.480	169830	1.07
15.483	162995	1.02
15.487	160324	1.01
15.490	158610	1.00
15.493	156738	0.99
15.497	153335	0.96
15.500	148739	0.93
15.503	144846	0.91
15.507	141229	0.89
15.510	136577	0.86
15.513	132375	0.83
15.517	130313	0.82
15.520	130059	0.82
15.523	129007	0.81
15.527	128457	0.81
15.530	128324	0.81
15.533	125631	0.79
15.537	122771	0.77
15.540	120254	0.76
15.543	116560	0.73
15.547	112938	0.71
15.550	109666	0.69
15.553	105867	0.67
15.557	104010	0.65
15.560	104628	0.66
15.563	106365	0.67
15.567	109665	0.69
15.570	116573	0.73
15.573	128474	0.81
15.577	147176	0.93
15.580	175926	1.11
15.583	216295	1.36
15.587	266755	1.68
15.590	319143	2.01
15.593	365934	2.30
15.597	400788	2.52
15.600	417400	2.62
15.603	411991	2.59
15.607	385358	2.42
15.610	344716	2.17
15.613	299620	1.88
15.617	256385	1.61
15.620	221907	1.39
15.623	199279	1.25
15.627	186503	1.17
15.630	179747	1.13
15.633	177423	1.12
15.637	178381	1.12
15.640	182410	1.15
15.643	190260	1.20
15.647	205455	1.29
15.650	227565	1.43
15.653	252587	1.59
15.657	275948	1.73
15.660	291789	1.83
15.663	294639	1.85
15.667	280073	1.76
15.670	250741	1.58
15.673	213837	1.34
15.677	177014	1.11
15.680	144210	0.91
15.683	118911	0.75
15.687	102184	0.64
15.690	90591	0.57
15.693	83465	0.52
15.697	79394	0.50
15.700	78030	0.49
15.703	78092	0.49
15.707	79856	0.50
15.710	84148	0.53
15.713	90585	0.57
15.717	100205	0.63
15.720	113933	0.72
15.723	129251	0.81
15.727	146017	0.92
15.730	162194	1.02
15.733	174410	1.10
15.737	184377	1.16
15.740	191963	1.21
15.743	195591	1.23
15.747	195572	1.23
15.750	189968	1.19
15.753	179602	1.13
15.757	167007	1.05
15.760	153336	0.96
15.763	140172	0.88
15.767	130464	0.82
15.770	125564	0.79
15.773	126068	0.79
15.777	130734	0.82
15.780	138256	0.87
15.783	146184	0.92
15.787	150732	0.95
15.790	152940	0.96
15.793	154391	0.97
15.797	154284	0.97
15.800	151984	0.96
15.803	150002	0.94
15.807	147305	0.93
15.810	144649	0.91
15.813	141448	0.89
15.817	138440	0.87
15.820	134338	0.84
15.823	128610	0.81
15.827	122944	0.77
15.830	119831	0.75
15.833	116510	0.73
15.837	114506	0.72
15.840	114854	0.72
15.843	117000	0.74
15.847	122859	0.77
15.850	134358	0.84
15.853	153197	0.96
15.857	179665	1.13
15.860	211593	1.33
15.863	246026	1.55
15.867	276296	1.74
15.870	297880	1.87
15.873	306239	1.92
15.877	297523	1.87
15.880	275168	1.73
15.883	246102	1.55
15.887	217282	1.37
15.890	189896	1.19
15.893	167510	1.05
15.897	155168	0.98
15.900	150475	0.95
15.903	149895	0.94
15.907	151006	0.95
15.910	152559	0.96
15.913	151124	0.95
15.917	146976	0.92
15.920	140265	0.88
15.923	131688	0.83
15.927	120834	0.76
15.930	110515	0.69
15.933	101087	0.64
15.937	93664	0.59
15.940	90472	0.57
15.943	91694	0.58
15.947	94921	0.60
15.950	98387	0.62
15.953	101026	0.63
15.957	103803	0.65
15.960	104898	0.66
15.963	103756	0.65
15.967	101224	0.64
15.970	99955	0.63
15.973	98495	0.62
15.977	97494	0.61
15.980	96193	0.60
15.983	94953	0.60
15.987	94072	0.59
15.990	93280	0.59
15.993	92475	0.58
15.997	91927	0.58
16.000	91639	0.58
16.003	91721	0.58
16.007	94983	0.60
16.010	102863	0.65
16.013	113315	0.71
16.017	124618	0.78
16.020	137911	0.87
16.023	155725	0.98
16.027	179068	1.13
16.030	209084	1.31
16.033	246801	1.55
16.037	288200	1.81
16.040	327362	2.06
16.043	358656	2.25
16.047	377655	2.37
16.050	385813	2.42
16.053	382664	2.41
16.057	366997	2.31
16.060	343754	2.16
16.063	318053	2.00
16.067	296113	1.86
16.070	280880	1.77
16.073	269099	1.69
16.077	259662	1.63
16.080	248997	1.56
16.083	233469	1.47
16.087	215984	1.36
16.090	198567	1.25
16.093	182721	1.15
16.097	169894	1.07
16.100	160052	1.01
16.103	153168	0.96
16.107	148751	0.93
16.110	144486	0.91
16.113	140271	0.88
16.117	138104	0.87
16.120	136935	0.86
16.123	134331	0.84
16.127	131161	0.82
16.130	128129	0.81
16.133	124959	0.79
16.137	122556	0.77
16.140	120833	0.76
16.143	120108	0.75
16.147	120127	0.76
16.150	121139	0.76
16.153	122741	0.77
16.157	125648	0.79
16.160	128206	0.81
16.163	130227	0.82
16.167	130358	0.82
16.170	130380	0.82
16.173	130395	0.82
16.177	130082	0.82
16.180	127813	0.80
16.183	124773	0.78
16.187	122188	0.77
16.190	120707	0.76
16.193	120109	0.75
16.197	120046	0.75
16.200	121559	0.76
16.203	127252	0.80
16.207	135796	0.85
16.210	147006	0.92
16.213	159558	1.00
16.217	169564	1.07
16.220	172287	1.08
16.223	166987	1.05
16.227	156187	0.98
16.230	142695	0.90
16.233	130139	0.82
16.237	119997	0.75
16.240	111824	0.70
16.243	107938	0.68
16.247	108011	0.68
16.250	109799	0.69
16.253	113306	0.71
16.257	116592	0.73
16.260	116750	0.73
16.263	116577	0.73
16.267	113271	0.71
16.270	107834	0.68
16.273	99975	0.63
16.277	95369	0.60
16.280	92782	0.58
16.283	91244	0.57
16.287	92889	0.58
16.290	98502	0.62
16.293	105623	0.66
16.297	113007	0.71
16.300	119706	0.75
16.303	125203	0.79
16.307	128962	0.81
16.310	129010	0.81
16.313	128976	0.81
16.317	133492	0.84
16.320	148472	0.93
16.323	176184	1.11
16.327	215252	1.35
16.330	263324	1.66
16.333	314787	1.98
16.337	360404	2.27
16.340	391187	2.46
16.343	405971	2.55
16.347	401113	2.52
16.350	375249	2.36
16.353	332867	2.09
16.357	281817	1.77
16.360	231708	1.46
16.363	188975	1.19
16.367	154777	0.97
16.370	128958	0.81
16.373	112280	0.71
16.377	101568	0.64
16.380	95037	0.60
16.383	93118	0.59
16.387	94239	0.59
16.390	96161	0.60
16.393	99059	0.62
16.397	101401	0.64
16.400	104227	0.66
16.403	107003	0.67
16.407	110914	0.70
16.410	115374	0.73
16.413	118746	0.75
16.417	118883	0.75
16.420	118249	0.74
16.423	113903	0.72
16.427	106741	0.67
16.430	101492	0.64
16.433	99194	0.62
16.437	100396	0.63
16.440	104976	0.66
16.443	109899	0.69
16.447	113394	0.71
16.450	114605	0.72
16.453	113974	0.72
16.457	110914	0.70
16.460	107870	0.68
16.463	105970	0.67
16.467	104757	0.66
16.470	104428	0.66
16.473	106059	0.67
16.477	109823	0.69
16.480	113843	0.72
16.483	118212	0.74
16.487	121141	0.76
16.490	122812	0.77
16.493	127235	0.80
16.497	133363	0.84
16.500	138869	0.87
16.503	142613	0.90
16.507	144311	0.91
16.510	142233	0.89
16.513	135495	0.85
16.517	127694	0.80
16.520	120941	0.76
16.523	116271	0.73
16.527	116831	0.73
16.530	122841	0.77
16.533	133467	0.84
16.537	148807	0.94
16.540	165472	1.04
16.543	179472	1.13
16.547	188440	1.18
16.550	191136	1.20
16.553	188997	1.19
16.557	183523	1.15
16.560	174468	1.10
16.563	163123	1.03
16.567	150863	0.95
16.570	138827	0.87
16.573	127534	0.80
16.577	117819	0.74
16.580	109279	0.69
16.583	101881	0.64
16.587	97783	0.61
16.590	97746	0.61
16.593	101293	0.64
16.597	107291	0.67
16.600	114735	0.72
16.603	122748	0.77
16.607	129994	0.82
16.610	135303	0.85
16.613	138817	0.87
16.617	139272	0.88
16.620	138922	0.87
16.623	138872	0.87
16.627	138937	0.87
16.630	138926	0.87
16.633	140020	0.88
16.637	141321	0.89
16.640	140583	0.88
16.643	138076	0.87
16.647	130665	0.82
16.650	122757	0.77
16.653	114871	0.72
16.657	107258	0.67
16.660	101114	0.64
16.663	96207	0.60
16.667	92730	0.58
16.670	91539	0.58
16.673	91575	0.58
16.677	92778	0.58
16.680	93158	0.59
16.683	92768	0.58
16.687	92284	0.58
16.690	92615	0.58
16.693	92720	0.58
16.697	92481	0.58
16.700	91571	0.58
16.703	88606	0.56
16.707	85167	0.54
16.710	81836	0.51
16.713	78322	0.49
16.717	75440	0.47
16.720	72643	0.46
16.723	69814	0.44
16.727	68823	0.43
16.730	69635	0.44
16.733	72592	0.46
16.737	77969	0.49
16.740	85204	0.54
16.743	92744	0.58
16.747	99620	0.63
16.750	103629	0.65
16.753	106580	0.67
16.757	109687	0.69
16.760	110422	0.69
16.763	110093	0.69
16.767	109697	0.69
16.770	109888	0.69
16.773	110306	0.69
16.777	111506	0.70
16.780	113561	0.71
16.783	115026	0.72
16.787	118490	0.74
16.790	123838	0.78
16.793	132584	0.83
16.797	145486	0.91
16.800	159219	1.00
16.803	173344	1.09
16.807	190022	1.19
16.810	204101	1.28
16.813	208498	1.31
16.817	204364	1.28
16.820	192955	1.21
16.823	175478	1.10
16.827	153854	0.97
16.830	132511	0.83
16.833	117846	0.74
16.837	110421	0.69
16.840	107976	0.68
16.843	108785	0.68
16.847	114410	0.72
16.850	121278	0.76
16.853	124163	0.78
16.857	123508	0.78
16.860	120100	0.75
16.863	114411	0.72
16.867	106216	0.67
16.870	98114	0.62
16.873	92738	0.58
16.877	90637	0.57
16.880	90470	0.57
16.883	91077	0.57
16.887	93741	0.59
16.890	97486	0.61
16.893	99907	0.63
16.897	100921	0.63
16.900	101315	0.64
16.903	101790	0.64
16.907	101780	0.64
16.910	100850	0.63
16.913	99757	0.63
16.917	99506	0.63
16.920	99810	0.63
16.923	100850	0.63
16.927	101094	0.64
16.930	100318	0.63
16.933	99587	0.63
16.937	97301	0.61
16.940	91481	0.57
16.943	84698	0.53
16.947	79670	0.50
16.950	75294	0.47
16.953	72693	0.46
16.957	70504	0.44
16.960	68164	0.43
16.963	67930	0.43
16.967	68121	0.43
16.970	70316	0.44
16.973	72287	0.45
16.977	74417	0.47
16.980	77046	0.48
16.983	79883	0.50
16.987	82815	0.52
16.990	83766	0.53
16.993	82940	0.52
16.997	81841	0.51
17.000	81887	0.51
17.003	82047	0.52
17.007	83212	0.52
17.010	87711	0.55
17.013	92298	0.58
17.017	95770	0.60
17.020	97324	0.61
17.023	97882	0.62
17.027	96595	0.61
17.030	92832	0.58
17.033	90109	0.57
17.037	86666	0.54
17.040	83406	0.52
17.043	81362	0.51
17.047	79399	0.50
17.050	79360	0.50
17.053	81242	0.51
17.057	86574	0.54
17.060	95846	0.60
17.063	107803	0.68
17.067	121288	0.76
17.070	132474	0.83
17.073	139341	0.88
17.077	139346	0.88
17.080	131130	0.82
17.083	117676	0.74
17.087	103060	0.65
17.090	88199	0.55
17.093	75630	0.48
17.097	67188	0.42
17.100	61673	0.39
17.103	57973	0.36
17.107	55367	0.35
17.110	54497	0.34
17.113	54031	0.34
17.117	54597	0.34
17.120	58374	0.37
17.123	67091	0.42
17.127	82688	0.52
17.130	110229	0.69
17.133	152259	0.96
17.137	212023	1.33
17.140	287326	1.81
17.143	367700	2.31
17.147	439282	2.76
17.150	490973	3.09
17.153	517681	3.25
17.157	520352	3.27
17.160	497517	3.13
17.163	451899	2.84
17.167	395801	2.49
17.170	340941	2.14
17.173	290039	1.82
17.177	242293	1.52
17.180	199577	1.25
17.183	166116	1.04
17.187	141044	0.89
17.190	122742	0.77
17.193	110733	0.70
17.197	102744	0.65
17.200	96587	0.61
17.203	92641	0.58
17.207	88786	0.56
17.210	84658	0.53
17.213	81297	0.51
17.217	80335	0.50
17.220	78277	0.49
17.223	75585	0.48
17.227	74986	0.47
17.230	73387	0.46
17.233	70688	0.44
17.237	68641	0.43
17.240	65306	0.41
17.243	61056	0.38
17.247	60039	0.38
17.250	59393	0.37
17.253	58916	0.37
17.257	59092	0.37
17.260	58804	0.37
17.263	58734	0.37
17.267	59168	0.37
17.270	59377	0.37
17.273	58907	0.37
17.277	58747	0.37
17.280	59421	0.37
17.283	59864	0.38
17.287	59671	0.38
17.290	59861	0.38
17.293	59737	0.38
17.297	59519	0.37
17.300	60209	0.38
17.303	60245	0.38
17.307	59291	0.37
17.310	59905	0.38
17.313	60161	0.38
17.317	59512	0.37
17.320	58997	0.37
17.323	58630	0.37
17.327	55639	0.35
17.330	54000	0.34
17.333	53808	0.34
17.337	53184	0.33
17.340	52851	0.33
17.343	53900	0.34
17.347	54156	0.34
17.350	54028	0.34
17.353	54156	0.34
17.357	54145	0.34
17.360	54073	0.34
17.363	55767	0.35
17.367	60034	0.38
17.370	68060	0.43
17.373	81458	0.51
17.377	101558	0.64
17.380	128635	0.81
17.383	162071	1.02
17.387	196949	1.24
17.390	227857	1.43
17.393	252273	1.59
17.397	268638	1.69
17.400	272488	1.71
17.403	261614	1.64
17.407	240819	1.51
17.410	215462	1.35
17.413	189606	1.19
17.417	167555	1.05
17.420	149775	0.94
17.423	133838	0.84
17.427	120925	0.76
17.430	112515	0.71
17.433	106324	0.67
17.437	100359	0.63
17.440	95766	0.60
17.443	92708	0.58
17.447	90011	0.57
17.450	87661	0.55
17.453	84502	0.53
17.457	83013	0.52
17.460	81308	0.51
17.463	78932	0.50
17.467	77508	0.49
17.470	76446	0.48
17.473	75953	0.48
17.477	75222	0.47
17.480	74529	0.47
17.483	74267	0.47
17.487	74530	0.47
17.490	76205	0.48
17.493	79069	0.50
17.497	81405	0.51
17.500	82277	0.52
17.503	83163	0.52
17.507	83533	0.53
17.510	83256	0.52
17.513	82232	0.52
17.517	79762	0.50
17.520	76753	0.48
17.523	74309	0.47
17.527	73458	0.46
17.530	73124	0.46
17.533	74036	0.47
17.537	75988	0.48
17.540	78346	0.49
17.543	81954	0.52
17.547	85730	0.54
17.550	88495	0.56
17.553	89095	0.56
17.557	88946	0.56
17.560	88230	0.55
17.563	85701	0.54
17.567	83093	0.52
17.570	79486	0.50
17.573	75137	0.47
17.577	71477	0.45
17.580	68498	0.43
17.583	67073	0.42
17.587	65214	0.41
17.590	64670	0.41
17.593	64409	0.40
17.597	63993	0.40
17.600	64203	0.40
17.603	64273	0.40
17.607	62867	0.40
17.610	61122	0.38
17.613	60916	0.38
17.617	60862	0.38
17.620	60542	0.38
17.623	60697	0.38
17.627	60573	0.38
17.630	59688	0.38
17.633	58972	0.37
17.637	58914	0.37
17.640	58660	0.37
17.643	58673	0.37
17.647	59316	0.37
17.650	60364	0.38
17.653	60949	0.38
17.657	61958	0.39
17.660	62621	0.39
17.663	62961	0.40
17.667	62700	0.39
17.670	61275	0.39
17.673	60722	0.38
17.677	60686	0.38
17.680	60825	0.38
17.683	61034	0.38
17.687	61201	0.38
17.690	61396	0.39
17.693	61852	0.39
17.697	62642	0.39
17.700	63983	0.40
17.703	66915	0.42
17.707	71079	0.45
17.710	74795	0.47
17.713	78949	0.50
17.717	82988	0.52
17.720	86905	0.55
17.723	88717	0.56
17.727	89041	0.56
17.730	89096	0.56
17.733	88257	0.55
17.737	85861	0.54
17.740	83265	0.52
17.743	82592	0.52
17.747	79997	0.50
17.750	76982	0.48
17.753	74416	0.47
17.757	71240	0.45
17.760	68129	0.43
17.763	66279	0.42
17.767	63796	0.40
17.770	62402	0.39
17.773	62135	0.39
17.777	61121	0.38
17.780	59130	0.37
17.783	58845	0.37
17.787	59546	0.37
17.790	60224	0.38
17.793	60280	0.38
17.797	61377	0.39
17.800	62108	0.39
17.803	62743	0.39
17.807	63963	0.40
17.810	63049	0.40
17.813	62090	0.39
17.817	61973	0.39
17.820	60708	0.38
17.823	59224	0.37
17.827	58765	0.37
17.830	57257	0.36
17.833	57139	0.36
17.837	58707	0.37
17.840	58832	0.37
17.843	59169	0.37
17.847	61976	0.39
17.850	64152	0.40
17.853	64537	0.41
17.857	64900	0.41
17.860	66749	0.42
17.863	67231	0.42
17.867	67216	0.42
17.870	66891	0.42
17.873	66522	0.42
17.877	64610	0.41
17.880	62322	0.39
17.883	61239	0.38
17.887	60591	0.38
17.890	59812	0.38
17.893	59189	0.37
17.897	58992	0.37
17.900	58792	0.37
17.903	58739	0.37
17.907	59094	0.37
17.910	59216	0.37
17.913	59128	0.37
17.917	59080	0.37
17.920	59375	0.37
17.923	62539	0.39
17.927	66424	0.42
17.930	68270	0.43
17.933	71207	0.45
17.937	74647	0.47
17.940	76438	0.48
17.943	78634	0.49
17.947	81072	0.51
17.950	81745	0.51
17.953	81053	0.51
17.957	78635	0.49
17.960	75222	0.47
17.963	71215	0.45
17.967	68256	0.43
17.970	66275	0.42
17.973	63471	0.40
17.977	61230	0.38
17.980	58822	0.37
17.983	56662	0.36
17.987	56514	0.36
17.990	56500	0.36
17.993	56492	0.36
17.997	57281	0.36
18.000	58782	0.37
18.003	58550	0.37
18.007	58254	0.37
18.010	59057	0.37
18.013	59254	0.37
18.017	58332	0.37
18.020	58015	0.36
18.023	58548	0.37
18.027	57299	0.36
18.030	56198	0.35
18.033	55933	0.35
18.037	55969	0.35
18.040	56209	0.35
18.043	56662	0.36
18.047	56787	0.36
18.050	56612	0.36
18.053	56935	0.36
18.057	56938	0.36
18.060	56813	0.36
18.063	57178	0.36
18.067	57121	0.36
18.070	56386	0.35
18.073	55069	0.35
18.077	52967	0.33
18.080	51128	0.32
18.083	49575	0.31
18.087	48605	0.31
18.090	48253	0.30
18.093	48732	0.31
18.097	49768	0.31
18.100	50796	0.32
18.103	50971	0.32
18.107	51422	0.32
18.110	52385	0.33
18.113	52947	0.33
18.117	53650	0.34
18.120	54427	0.34
18.123	54565	0.34
18.127	54787	0.34
18.130	54702	0.34
18.133	53798	0.34
18.137	52771	0.33
18.140	51494	0.32
18.143	51169	0.32
18.147	50816	0.32
18.150	49513	0.31
18.153	48393	0.30
18.157	48047	0.30
18.160	48272	0.30
18.163	47725	0.30
18.167	47039	0.30
18.170	46923	0.29
18.173	46953	0.30
18.177	46906	0.29
18.180	46965	0.30
18.183	46844	0.29
18.187	46913	0.29
18.190	47349	0.30
18.193	47232	0.30
18.197	46798	0.29
18.200	46778	0.29
18.203	46981	0.30
18.207	47001	0.30
18.210	47175	0.30
18.213	47272	0.30
18.217	47145	0.30
18.220	47266	0.30
18.223	47404	0.30
18.227	47339	0.30
18.230	47774	0.30
18.233	47445	0.30
18.237	47129	0.30
18.240	47234	0.30
18.243	48008	0.30
18.247	48262	0.30
18.250	47537	0.30
18.253	47295	0.30
18.257	48115	0.30
18.260	48762	0.31
18.263	49084	0.31
18.267	49618	0.31
18.270	49844	0.31
18.273	49395	0.31
18.277	49096	0.31
18.280	49426	0.31
18.283	48881	0.31
18.287	48692	0.31
18.290	49783	0.31
18.293	50090	0.31
18.297	48846	0.31
18.300	48261	0.30
18.303	48035	0.30
18.307	45979	0.29
18.310	44095	0.28
18.313	42978	0.27
18.317	41669	0.26
18.320	41048	0.26
18.323	41157	0.26
18.327	41420	0.26
18.330	41818	0.26
18.333	42386	0.27
18.337	42707	0.27
18.340	42990	0.27
18.343	43066	0.27
18.347	43199	0.27
18.350	43132	0.27
18.353	42806	0.27
18.357	42112	0.26
18.360	42062	0.26
18.363	43360	0.27
18.367	44682	0.28
18.370	44372	0.28
18.373	44194	0.28
18.377	44912	0.28
18.380	46949	0.30
18.383	48947	0.31
18.387	50361	0.32
18.390	51390	0.32
18.393	52505	0.33
18.397	54190	0.34
18.400	54720	0.34
18.403	54580	0.34
18.407	53578	0.34
18.410	51889	0.33
18.413	49798	0.31
18.417	48150	0.30
18.420	46674	0.29
18.423	44759	0.28
18.427	44411	0.28
18.430	44521	0.28
18.433	44663	0.28
18.437	44469	0.28
18.440	43941	0.28
18.443	44207	0.28
18.447	44661	0.28
18.450	44719	0.28
18.453	45613	0.29
18.457	46654	0.29
18.460	46936	0.29
18.463	47673	0.30
18.467	48540	0.31
18.470	49897	0.31
18.473	51103	0.32
18.477	51960	0.33
18.480	53016	0.33
18.483	54645	0.34
18.487	55984	0.35
18.490	56344	0.35
18.493	56963	0.36
18.497	57654	0.36
18.500	57601	0.36
18.503	57734	0.36
18.507	57871	0.36
18.510	57877	0.36
18.513	57909	0.36
18.517	57927	0.36
18.520	57836	0.36
18.523	57068	0.36
18.527	56789	0.36
18.530	57018	0.36
18.533	56394	0.35
18.537	55276	0.35
18.540	54374	0.34
18.543	52175	0.33
18.547	50794	0.32
18.550	50775	0.32
18.553	50497	0.32
18.557	49919	0.31
18.560	50215	0.32
18.563	50537	0.32
18.567	50599	0.32
18.570	50698	0.32
18.573	50802	0.32
18.577	50856	0.32
18.580	51665	0.32
18.583	54352	0.34
18.587	56436	0.35
18.590	57617	0.36
18.593	59109	0.37
18.597	61708	0.39
18.600	64559	0.41
18.603	67671	0.43
18.607	70307	0.44
18.610	71852	0.45
18.613	74626	0.47
18.617	74780	0.47
18.620	73291	0.46
18.623	71572	0.45
18.627	68701	0.43
18.630	66591	0.42
18.633	64653	0.41
18.637	62234	0.39
18.640	59617	0.37
18.643	58089	0.37
18.647	57290	0.36
18.650	55566	0.35
18.653	53520	0.34
18.657	50870	0.32
18.660	49040	0.31
18.663	48433	0.30
18.667	48337	0.30
18.670	47919	0.30
18.673	46997	0.30
18.677	45534	0.29
18.680	45132	0.28
18.683	45063	0.28
18.687	45039	0.28
18.690	44837	0.28
18.693	44522	0.28
18.697	44250	0.28
18.700	43879	0.28
18.703	43361	0.27
18.707	43189	0.27
18.710	42970	0.27
18.713	41301	0.26
18.717	41045	0.26
18.720	41059	0.26
18.723	40826	0.26
18.727	40841	0.26
18.730	41139	0.26
18.733	40978	0.26
18.737	40734	0.26
18.740	41029	0.26
18.743	41246	0.26
18.747	41060	0.26
18.750	41109	0.26
18.753	41641	0.26
18.757	43380	0.27
18.760	45190	0.28
18.763	48824	0.31
18.767	54065	0.34
18.770	59665	0.38
18.773	64521	0.41
18.777	67910	0.43
18.780	70902	0.45
18.783	73167	0.46
18.787	74271	0.47
18.790	74657	0.47
18.793	76289	0.48
18.797	78666	0.49
18.800	80297	0.50
18.803	81452	0.51
18.807	84429	0.53
18.810	85734	0.54
18.813	85311	0.54
18.817	83947	0.53
18.820	82610	0.52
18.823	80267	0.50
18.827	78271	0.49
18.830	74482	0.47
18.833	70729	0.44
18.837	67256	0.42
18.840	64418	0.40
18.843	62349	0.39
18.847	59712	0.38
18.850	57106	0.36
18.853	55554	0.35
18.857	53742	0.34
18.860	52629	0.33
18.863	51885	0.33
18.867	50884	0.32
18.870	48954	0.31
18.873	47569	0.30
18.877	45943	0.29
18.880	44788	0.28
18.883	44434	0.28
18.887	44441	0.28
18.890	45057	0.28
18.893	45372	0.29
18.897	45254	0.28
18.900	46267	0.29
18.903	48006	0.30
18.907	48585	0.31
18.910	49683	0.31
18.913	51213	0.32
18.917	53013	0.33
18.920	53407	0.34
18.923	53518	0.34
18.927	53516	0.34
18.930	53479	0.34
18.933	53527	0.34
18.937	54115	0.34
18.940	56545	0.36
18.943	59822	0.38
18.947	64324	0.40
18.950	70849	0.45
18.953	78987	0.50
18.957	86456	0.54
18.960	92142	0.58
18.963	96938	0.61
18.967	99040	0.62
18.970	99015	0.62
18.973	97029	0.61
18.977	92654	0.58
18.980	86463	0.54
18.983	79062	0.50
18.987	72278	0.45
18.990	66408	0.42
18.993	60938	0.38
18.997	56814	0.36
19.000	54713	0.34
19.003	54232	0.34
19.007	53930	0.34
19.010	54529	0.34
19.013	57026	0.36
19.017	61196	0.38
19.020	65748	0.41
19.023	70140	0.44
19.027	74606	0.47
19.030	78657	0.49
19.033	79208	0.50
19.037	79207	0.50
19.040	78758	0.50
19.043	78088	0.49
19.047	75178	0.47
19.050	70703	0.44
19.053	65973	0.41
19.057	61464	0.39
19.060	57291	0.36
19.063	54454	0.34
19.067	52520	0.33
19.070	50308	0.32
19.073	49452	0.31
19.077	49000	0.31
19.080	48107	0.30
19.083	47701	0.30
19.087	47423	0.30
19.090	45403	0.29
19.093	44760	0.28
19.097	44751	0.28
19.100	44645	0.28
19.103	44865	0.28
19.107	45343	0.28
19.110	44921	0.28
19.113	42949	0.27
19.117	42060	0.26
19.120	42110	0.26
19.123	41883	0.26
19.127	41349	0.26
19.130	40804	0.26
19.133	39531	0.25
19.137	38419	0.24
19.140	38119	0.24
19.143	37863	0.24
19.147	37734	0.24
19.150	38458	0.24
19.153	38838	0.24
19.157	38486	0.24
19.160	38724	0.24
19.163	39127	0.25
19.167	39490	0.25
19.170	40030	0.25
19.173	40266	0.25
19.177	40400	0.25
19.180	40425	0.25
19.183	40305	0.25
19.187	40410	0.25
19.190	40302	0.25
19.193	39115	0.25
19.197	37444	0.24
19.200	37150	0.23
19.203	38305	0.24
19.207	39147	0.25
19.210	39047	0.25
19.213	39883	0.25
19.217	40470	0.25
19.220	40245	0.25
19.223	40887	0.26
19.227	43658	0.27
19.230	45952	0.29
19.233	48024	0.30
19.237	50304	0.32
19.240	51947	0.33
19.243	54094	0.34
19.247	56878	0.36
19.250	57668	0.36
19.253	58826	0.37
19.257	59792	0.38
19.260	59895	0.38
19.263	59561	0.37
19.267	57375	0.36
19.270	54853	0.34
19.273	53419	0.34
19.277	53434	0.34
19.280	53622	0.34
19.283	53089	0.33
19.287	50903	0.32
19.290	50497	0.32
19.293	49587	0.31
19.297	46442	0.29
19.300	43913	0.28
19.303	42911	0.27
19.307	42704	0.27
19.310	42598	0.27
19.313	42570	0.27
19.317	42539	0.27
19.320	42682	0.27
19.323	44108	0.28
19.327	45766	0.29
19.330	46560	0.29
19.333	47588	0.30
19.337	47533	0.30
19.340	46743	0.29
19.343	46149	0.29
19.347	44080	0.28
19.350	42421	0.27
19.353	40029	0.25
19.357	39256	0.25
19.360	39233	0.25
19.363	38730	0.24
19.367	37136	0.23
19.370	35964	0.23
19.373	35823	0.23
19.377	35549	0.22
19.380	34891	0.22
19.383	35027	0.22
19.387	35898	0.23
19.390	36087	0.23
19.393	36036	0.23
19.397	36102	0.23
19.400	36122	0.23
19.403	36007	0.23
19.407	35977	0.23
19.410	36236	0.23
19.413	35725	0.22
19.417	35451	0.22
19.420	35934	0.23
19.423	36401	0.23
19.427	37701	0.24
19.430	39448	0.25
19.433	42323	0.27
19.437	45272	0.28
19.440	48778	0.31
19.443	53493	0.34
19.447	56941	0.36
19.450	59755	0.38
19.453	61572	0.39
19.457	61229	0.38
19.460	59697	0.38
19.463	57297	0.36
19.467	54488	0.34
19.470	50903	0.32
19.473	47823	0.30
19.477	45078	0.28
19.480	42333	0.27
19.483	39953	0.25
19.487	38236	0.24
19.490	36474	0.23
19.493	36302	0.23
19.497	36216	0.23
19.500	35091	0.22
19.503	33448	0.21
19.507	32921	0.21
19.510	32014	0.20
19.513	30517	0.19
19.517	30146	0.19
19.520	30339	0.19
19.523	30479	0.19
19.527	31419	0.20
19.530	32405	0.20
19.533	32332	0.20
19.537	32201	0.20
19.540	32489	0.20
19.543	32535	0.20
19.547	32678	0.21
19.550	33036	0.21
19.553	33020	0.21
19.557	32895	0.21
19.560	32879	0.21
19.563	31928	0.20
19.567	30524	0.19
19.570	31035	0.20
19.573	31384	0.20
19.577	31212	0.20
19.580	31878	0.20
19.583	32049	0.20
19.587	30740	0.19
19.590	29587	0.19
19.593	29271	0.18
19.597	28876	0.18
19.600	28192	0.18
19.603	28703	0.18
19.607	29164	0.18
19.610	28681	0.18
19.613	28708	0.18
19.617	29257	0.18
19.620	29260	0.18
19.623	28917	0.18
19.627	30329	0.19
19.630	29665	0.19
19.633	29577	0.19
19.637	30482	0.19
19.640	30432	0.19
19.643	29476	0.19
19.647	29434	0.18
19.650	29335	0.18
19.653	28992	0.18
19.657	28500	0.18
19.660	28651	0.18
19.663	28989	0.18
19.667	28303	0.18
19.670	28064	0.18
19.673	27226	0.17
19.677	27618	0.17
19.680	28160	0.18
19.683	27903	0.18
19.687	27744	0.17
19.690	27909	0.18
19.693	27539	0.17
19.697	27228	0.17
19.700	27813	0.17
19.703	28255	0.18
19.707	27664	0.17
19.710	27410	0.17
19.713	28342	0.18
19.717	28847	0.18
19.720	28742	0.18
19.723	29167	0.18
19.727	29156	0.18
19.730	29299	0.18
19.733	30711	0.19
19.737	31351	0.20
19.740	31397	0.20
19.743	31623	0.20
19.747	31817	0.20
19.750	31686	0.20
19.753	32003	0.20
19.757	32652	0.21
19.760	32834	0.21
19.763	32293	0.20
19.767	32088	0.20
19.770	32267	0.20
19.773	32172	0.20
19.777	31577	0.20
19.780	31243	0.20
19.783	30893	0.19
19.787	30951	0.19
19.790	31287	0.20
19.793	31306	0.20
19.797	31437	0.20
19.800	31309	0.20
19.803	30659	0.19
19.807	30760	0.19
19.810	31783	0.20
19.813	33246	0.21
19.817	35911	0.23
19.820	38651	0.24
19.823	41870	0.26
19.827	45006	0.28
19.830	48225	0.30
19.833	50167	0.32
19.837	50258	0.32
19.840	50352	0.32
19.843	50210	0.32
19.847	48295	0.30
19.850	45953	0.29
19.853	44396	0.28
19.857	41823	0.26
19.860	40103	0.25
19.863	38988	0.25
19.867	38528	0.24
19.870	38984	0.25
19.873	39735	0.25
19.877	39669	0.25
19.880	38638	0.24
19.883	37534	0.24
19.887	37079	0.23
19.890	36808	0.23
19.893	36713	0.23
19.897	36720	0.23
19.900	37050	0.23
19.903	37592	0.24
19.907	37515	0.24
19.910	36746	0.23
19.913	36567	0.23
19.917	35550	0.22
19.920	34858	0.22
19.923	33965	0.21
19.927	33132	0.21
19.930	32728	0.21
19.933	31943	0.20
19.937	32085	0.20
19.940	33118	0.21
19.943	33101	0.21
19.947	33162	0.21
19.950	34904	0.22
19.953	36167	0.23
19.957	36989	0.23
19.960	38493	0.24
19.963	40154	0.25
19.967	40765	0.26
19.970	41526	0.26
19.973	41539	0.26
19.977	41194	0.26
19.980	41398	0.26
19.983	41541	0.26
19.987	40955	0.26
19.990	39898	0.25
19.993	38467	0.24
19.997	36879	0.23
20.000	36434	0.23
20.003	36303	0.23
20.007	35496	0.22
20.010	35185	0.22
20.013	35117	0.22
20.017	34342	0.22
20.020	33303	0.21
20.023	33268	0.21
20.027	33245	0.21
20.030	33158	0.21
20.033	34089	0.21
20.037	35329	0.22
20.040	35346	0.22
20.043	35365	0.22
20.047	35489	0.22
20.050	35475	0.22
20.053	34997	0.22
20.057	35143	0.22
20.060	35486	0.22
20.063	35507	0.22
20.067	34996	0.22
20.070	34327	0.22
20.073	34255	0.22
20.077	33679	0.21
20.080	33094	0.21
20.083	33320	0.21
20.087	34785	0.22
20.090	35523	0.22
20.093	35766	0.22
20.097	37021	0.23
20.100	38676	0.24
20.103	39930	0.25
20.107	40572	0.25
20.110	41364	0.26
20.113	41685	0.26
20.117	41324	0.26
20.120	41107	0.26
20.123	41014	0.26
20.127	41102	0.26
20.130	40356	0.25
20.133	38839	0.24
20.137	37298	0.23
20.140	35672	0.22
20.143	34926	0.22
20.147	33394	0.21
20.150	32576	0.20
20.153	32609	0.20
20.157	32032	0.20
20.160	31435	0.20
20.163	31710	0.20
20.167	31639	0.20
20.170	31181	0.20
20.173	31361	0.20
20.177	30960	0.19
20.180	30442	0.19
20.183	30117	0.19
20.187	29467	0.19
20.190	29543	0.19
20.193	30098	0.19
20.197	30769	0.19
20.200	31927	0.20
20.203	32369	0.20
20.207	32570	0.20
20.210	32761	0.21
20.213	32681	0.21
20.217	33123	0.21
20.220	33443	0.21
20.223	32982	0.21
20.227	32231	0.20
20.230	31809	0.20
20.233	31169	0.20
20.237	30499	0.19
20.240	29905	0.19
20.243	29686	0.19
20.247	29260	0.18
20.250	29460	0.19
20.253	30019	0.19
20.257	29825	0.19
20.260	29324	0.18
20.263	29358	0.18
20.267	29585	0.19
20.270	29447	0.19
20.273	29597	0.19
20.277	30018	0.19
20.280	29882	0.19
20.283	29899	0.19
20.287	30182	0.19
20.290	29813	0.19
20.293	29735	0.19
20.297	30238	0.19
20.300	29870	0.19
20.303	29103	0.18
20.307	29584	0.19
20.310	30554	0.19
20.313	31544	0.20
20.317	32593	0.20
20.320	34390	0.22
20.323	36116	0.23
20.327	38483	0.24
20.330	39637	0.25
20.333	39530	0.25
20.337	39693	0.25
20.340	41367	0.26
20.343	41633	0.26
20.347	42414	0.27
20.350	45314	0.28
20.353	47358	0.30
20.357	47511	0.30
20.360	47598	0.30
20.363	47424	0.30
20.367	45119	0.28
20.370	44564	0.28
20.373	43859	0.28
20.377	41563	0.26
20.380	39420	0.25
20.383	37768	0.24
20.387	36125	0.23
20.390	34483	0.22
20.393	32817	0.21
20.397	31037	0.20
20.400	30259	0.19
20.403	29998	0.19
20.407	29832	0.19
20.410	29530	0.19
20.413	29930	0.19
20.417	30095	0.19
20.420	30186	0.19
20.423	30346	0.19
20.427	30315	0.19
20.430	30491	0.19
20.433	31761	0.20
20.437	33994	0.21
20.440	35859	0.23
20.443	36913	0.23
20.447	39167	0.25
20.450	41755	0.26
20.453	42744	0.27
20.457	42370	0.27
20.460	41103	0.26
20.463	39478	0.25
20.467	38819	0.24
20.470	37180	0.23
20.473	35766	0.22
20.477	34077	0.21
20.480	31735	0.20
20.483	30536	0.19
20.487	30644	0.19
20.490	30932	0.19
20.493	30706	0.19
20.497	30578	0.19
20.500	30733	0.19
20.503	30810	0.19
20.507	30705	0.19
20.510	30576	0.19
20.513	30825	0.19
20.517	31583	0.20
20.520	32701	0.21
20.523	34310	0.22
20.527	35487	0.22
20.530	35772	0.22
20.533	36370	0.23
20.537	36174	0.23
20.540	35429	0.22
20.543	34922	0.22
20.547	34414	0.22
20.550	34146	0.21
20.553	32459	0.20
20.557	31836	0.20
20.560	31094	0.20
20.563	30744	0.19
20.567	30707	0.19
20.570	30773	0.19
20.573	30925	0.19
20.577	31031	0.20
20.580	31041	0.20
20.583	31261	0.20
20.587	31613	0.20
20.590	30992	0.19
20.593	30479	0.19
20.597	29818	0.19
20.600	29577	0.19
20.603	29386	0.18
20.607	30121	0.19
20.610	31104	0.20
20.613	31958	0.20
20.617	34091	0.21
20.620	36838	0.23
20.623	39219	0.25
20.627	39463	0.25
20.630	39406	0.25
20.633	39799	0.25
20.637	40248	0.25
20.640	39915	0.25
20.643	39006	0.25
20.647	37591	0.24
20.650	37151	0.23
20.653	37013	0.23
20.657	35936	0.23
20.660	34266	0.22
20.663	32550	0.20
20.667	30322	0.19
20.670	29496	0.19
20.673	29830	0.19
20.677	29375	0.18
20.680	28717	0.18
20.683	28813	0.18
20.687	30079	0.19
20.690	30939	0.19
20.693	33021	0.21
20.697	36300	0.23
20.700	38139	0.24
20.703	38790	0.24
20.707	39127	0.25
20.710	39005	0.25
20.713	37469	0.24
20.717	35634	0.22
20.720	33088	0.21
20.723	30478	0.19
20.727	27819	0.17
20.730	27073	0.17
20.733	26883	0.17
20.737	26986	0.17
20.740	26470	0.17
20.743	25465	0.16
20.747	24916	0.16
20.750	24993	0.16
20.753	25067	0.16
20.757	24969	0.16
20.760	25035	0.16
20.763	25251	0.16
20.767	24930	0.16
20.770	24091	0.15
20.773	24332	0.15
20.777	23519	0.15
20.780	22589	0.14
20.783	22697	0.14
20.787	22591	0.14
20.790	22442	0.14
20.793	23691	0.15
20.797	24242	0.15
20.800	24727	0.16
20.803	25681	0.16
20.807	27127	0.17
20.810	28087	0.18
20.813	29494	0.19
20.817	31351	0.20
20.820	31919	0.20
20.823	32138	0.20
20.827	32988	0.21
20.830	33219	0.21
20.833	33503	0.21
20.837	33703	0.21
20.840	33462	0.21
20.843	33256	0.21
20.847	33284	0.21
20.850	33222	0.21
20.853	33123	0.21
20.857	33076	0.21
20.860	33169	0.21
20.863	33236	0.21
20.867	33635	0.21
20.870	34721	0.22
20.873	34630	0.22
20.877	34588	0.22
20.880	35184	0.22
20.883	35319	0.22
20.887	35452	0.22
20.890	35637	0.22
20.893	35351	0.22
20.897	34549	0.22
20.900	33785	0.21
20.903	33036	0.21
20.907	30915	0.19
20.910	29478	0.19
20.913	28836	0.18
20.917	28525	0.18
20.920	28030	0.18
20.923	26713	0.17
20.927	25887	0.16
20.930	25985	0.16
20.933	26581	0.17
20.937	27105	0.17
20.940	27348	0.17
20.943	28450	0.18
20.947	29051	0.18
20.950	28926	0.18
20.953	28589	0.18
20.957	28970	0.18
20.960	28964	0.18
20.963	29023	0.18
20.967	29076	0.18
20.970	28634	0.18
20.973	28262	0.18
20.977	28313	0.18
20.980	26839	0.17
20.983	26404	0.17
20.987	26839	0.17
20.990	26729	0.17
20.993	26093	0.16
20.997	25968	0.16
21.000	26230	0.16
21.003	25899	0.16
21.007	25690	0.16
21.010	25649	0.16
21.013	25910	0.16
21.017	26144	0.16
21.020	26089	0.16
21.023	26270	0.17
21.027	26246	0.16
21.030	26006	0.16
21.033	25979	0.16
21.037	26354	0.17
21.040	28365	0.18
21.043	29704	0.19
21.047	31450	0.20
21.050	32893	0.21
21.053	35730	0.22
21.057	36276	0.23
21.060	36218	0.23
21.063	36225	0.23
21.067	35218	0.22
21.070	33397	0.21
21.073	32969	0.21
21.077	32653	0.21
21.080	31822	0.20
21.083	31786	0.20
21.087	32583	0.20
21.090	32514	0.20
21.093	32305	0.20
21.097	31869	0.20
21.100	31731	0.20
21.103	31555	0.20
21.107	30482	0.19
21.110	28833	0.18
21.113	28424	0.18
21.117	29091	0.18
21.120	28549	0.18
21.123	28177	0.18
21.127	28785	0.18
21.130	30426	0.19
21.133	32131	0.20
21.137	34252	0.22
21.140	36497	0.23
21.143	38613	0.24
21.147	41999	0.26
21.150	45524	0.29
21.153	47228	0.30
21.157	47590	0.30
21.160	47616	0.30
21.163	47261	0.30
21.167	45609	0.29
21.170	43600	0.27
21.173	40552	0.25
21.177	38056	0.24
21.180	36423	0.23
21.183	34867	0.22
21.187	33139	0.21
21.190	31897	0.20
21.193	30752	0.19
21.197	29171	0.18
21.200	29402	0.18
21.203	30867	0.19
21.207	30557	0.19
21.210	29146	0.18
21.213	29066	0.18
21.217	30560	0.19
21.220	31112	0.20
21.223	31358	0.20
21.227	32442	0.20
21.230	31801	0.20
21.233	31243	0.20
21.237	31665	0.20
21.240	30883	0.19
21.243	29136	0.18
21.247	28919	0.18
21.250	27788	0.17
21.253	27244	0.17
21.257	27311	0.17
21.260	27177	0.17
21.263	27094	0.17
21.267	27541	0.17
21.270	29418	0.18
21.273	31146	0.20
21.277	32880	0.21
21.280	35812	0.23
21.283	38359	0.24
21.287	42264	0.27
21.290	45527	0.29
21.293	45960	0.29
21.297	45881	0.29
21.300	45669	0.29
21.303	44180	0.28
21.307	42165	0.27
21.310	39835	0.25
21.313	38039	0.24
21.317	36508	0.23
21.320	35761	0.22
21.323	35093	0.22
21.327	33696	0.21
21.330	33034	0.21
21.333	32944	0.21
21.337	32797	0.21
21.340	32747	0.21
21.343	33328	0.21
21.347	33564	0.21
21.350	34452	0.22
21.353	36021	0.23
21.357	36808	0.23
21.360	37658	0.24
21.363	40011	0.25
21.367	41304	0.26
21.370	41703	0.26
21.373	41932	0.26
21.377	41985	0.26
21.380	42004	0.26
21.383	41800	0.26
21.387	41113	0.26
21.390	39682	0.25
21.393	37479	0.24
21.397	37086	0.23
21.400	36828	0.23
21.403	36769	0.23
21.407	36494	0.23
21.410	34987	0.22
21.413	33336	0.21
21.417	33019	0.21
21.420	32996	0.21
21.423	32662	0.21
21.427	32464	0.20
21.430	32786	0.21
21.433	33183	0.21
21.437	33316	0.21
21.440	33396	0.21
21.443	34006	0.21
21.447	34893	0.22
21.450	36237	0.23
21.453	37142	0.23
21.457	37219	0.23
21.460	37455	0.24
21.463	36842	0.23
21.467	35075	0.22
21.470	34643	0.22
21.473	33919	0.21
21.477	33242	0.21
21.480	32960	0.21
21.483	32949	0.21
21.487	33271	0.21
21.490	33802	0.21
21.493	34046	0.21
21.497	34226	0.22
21.500	34152	0.21
21.503	34249	0.22
21.507	34844	0.22
21.510	34749	0.22
21.513	33505	0.21
21.517	32514	0.20
21.520	31366	0.20
21.523	29834	0.19
21.527	28518	0.18
21.530	28105	0.18
21.533	27260	0.17
21.537	27301	0.17
21.540	27902	0.18
21.543	27823	0.17
21.547	27449	0.17
21.550	28059	0.18
21.553	28540	0.18
21.557	28580	0.18
21.560	28907	0.18
21.563	29811	0.19
21.567	29938	0.19
21.570	29427	0.18
21.573	30274	0.19
21.577	31525	0.20
21.580	32202	0.20
21.583	33643	0.21
21.587	34668	0.22
21.590	34676	0.22
21.593	34757	0.22
21.597	34787	0.22
21.600	34619	0.22
21.603	35529	0.22
21.607	37340	0.23
21.610	38031	0.24
21.613	39445	0.25
21.617	41808	0.26
21.620	41948	0.26
21.623	41999	0.26
21.627	42011	0.26
21.630	40733	0.26
21.633	39185	0.25
21.637	39174	0.25
21.640	38445	0.24
21.643	36341	0.23
21.647	35185	0.22
21.650	34262	0.22
21.653	33411	0.21
21.657	35300	0.22
21.660	36049	0.23
21.663	35231	0.22
21.667	34910	0.22
21.670	34918	0.22
21.673	33483	0.21
21.677	32435	0.20
21.680	32699	0.21
21.683	32124	0.20
21.687	31831	0.20
21.690	31737	0.20
21.693	30843	0.19
21.697	29783	0.19
21.700	29552	0.19
21.703	29834	0.19
21.707	30264	0.19
21.710	30601	0.19
21.713	29825	0.19
21.717	28086	0.18
21.720	27896	0.18
21.723	28222	0.18
21.727	28133	0.18
21.730	27942	0.18
21.733	27811	0.17
21.737	27640	0.17
21.740	27723	0.17
21.743	27961	0.18
21.747	27789	0.17
21.750	27708	0.17
21.753	27585	0.17
21.757	27577	0.17
21.760	28007	0.18
21.763	28370	0.18
21.767	28174	0.18
21.770	28371	0.18
21.773	28863	0.18
21.777	29523	0.19
21.780	28783	0.18
21.783	28361	0.18
21.787	28864	0.18
21.790	28913	0.18
21.793	28478	0.18
21.797	27655	0.17
21.800	27932	0.18
21.803	27946	0.18
21.807	27068	0.17
21.810	27106	0.17
21.813	27384	0.17
21.817	27638	0.17
21.820	28137	0.18
21.823	27856	0.18
21.827	28120	0.18
21.830	28586	0.18
21.833	28434	0.18
21.837	28231	0.18
21.840	28422	0.18
21.843	28470	0.18
21.847	27928	0.18
21.850	27369	0.17
21.853	27164	0.17
21.857	27696	0.17
21.860	27875	0.18
21.863	28258	0.18
21.867	28537	0.18
21.870	28283	0.18
21.873	27961	0.18
21.877	27572	0.17
21.880	27623	0.17
21.883	28075	0.18
21.887	28185	0.18
21.890	28097	0.18
21.893	28490	0.18
21.897	28636	0.18
21.900	28356	0.18
21.903	28565	0.18
21.907	28875	0.18
21.910	28541	0.18
21.913	27676	0.17
21.917	27479	0.17
21.920	27708	0.17
21.923	27282	0.17
21.927	26584	0.17
21.930	26728	0.17
21.933	27070	0.17
21.937	26376	0.17
21.940	26174	0.16
21.943	26064	0.16
21.947	26019	0.16
21.950	27458	0.17
21.953	27463	0.17
21.957	26462	0.17
21.960	26544	0.17
21.963	27174	0.17
21.967	27410	0.17
21.970	27365	0.17
21.973	26899	0.17
21.977	25591	0.16
21.980	25041	0.16
21.983	24250	0.15
21.987	23723	0.15
21.990	23511	0.15
21.993	24405	0.15
21.997	24007	0.15
22.000	23037	0.14
22.003	22977	0.14
22.007	22935	0.14
22.010	22792	0.14
22.013	22161	0.14
22.017	22124	0.14
22.020	22927	0.14
22.023	23663	0.15
22.027	23774	0.15
22.030	23207	0.15
22.033	23332	0.15
22.037	25038	0.16
22.040	26150	0.16
22.043	26174	0.16
22.047	26371	0.17
22.050	26289	0.17
22.053	26007	0.16
22.057	24653	0.15
22.060	24304	0.15
22.063	24688	0.16
22.067	24910	0.16
22.070	25683	0.16
22.073	26082	0.16
22.077	26069	0.16
22.080	26379	0.17
22.083	26520	0.17
22.087	26103	0.16
22.090	25541	0.16
22.093	25205	0.16
22.097	23724	0.15
22.100	22877	0.14
22.103	22899	0.14
22.107	22935	0.14
22.110	23524	0.15
22.113	25214	0.16
22.117	26980	0.17
22.120	29732	0.19
22.123	31499	0.20
22.127	31456	0.20
22.130	31761	0.20
22.133	33212	0.21
22.137	32707	0.21
22.140	30494	0.19
22.143	29365	0.18
22.147	27449	0.17
22.150	26079	0.16
22.153	24716	0.16
22.157	24141	0.15
22.160	23015	0.14
22.163	22371	0.14
22.167	22079	0.14
22.170	21835	0.14
22.173	20825	0.13
22.177	21790	0.14
22.180	23862	0.15
22.183	24135	0.15
22.187	25281	0.16
22.190	26255	0.17
22.193	25756	0.16
22.197	25077	0.16
22.200	23845	0.15
22.203	24713	0.16
22.207	24252	0.15
22.210	23913	0.15
22.213	20829	0.13
22.217	20920	0.13
22.220	20874	0.13
22.223	20956	0.13
22.227	20942	0.13
22.230	21146	0.13
22.233	21548	0.14
22.237	22007	0.14
22.240	22759	0.14
22.243	23619	0.15
22.247	22202	0.14
22.250	22644	0.14
22.253	22696	0.14
22.257	21975	0.14
22.260	21350	0.13
22.263	21430	0.13
22.267	21381	0.13
22.270	21286	0.13
22.273	21625	0.14
22.277	22167	0.14
22.280	21689	0.14
22.283	22908	0.14
22.287	25477	0.16
22.290	26768	0.17
22.293	29186	0.18
22.297	32183	0.20
22.300	34679	0.22
22.303	37767	0.24
22.307	39088	0.25
22.310	39144	0.25
22.313	39121	0.25
22.317	39128	0.25
22.320	39140	0.25
22.323	38890	0.24
22.327	37033	0.23
22.330	34601	0.22
22.333	33361	0.21
22.337	32856	0.21
22.340	32519	0.20
22.343	31809	0.20
22.347	30853	0.19
22.350	31767	0.20
22.353	32513	0.20
22.357	33756	0.21
22.360	34492	0.22
22.363	34148	0.21
22.367	33027	0.21
22.370	32408	0.20
22.373	32034	0.20
22.377	31063	0.20
22.380	29568	0.19
22.383	28390	0.18
22.387	27485	0.17
22.390	27062	0.17
22.393	26640	0.17
22.397	26646	0.17
22.400	26939	0.17
22.403	27055	0.17
22.407	27093	0.17
22.410	26812	0.17
22.413	26465	0.17
22.417	26394	0.17
22.420	26849	0.17
22.423	27005	0.17
22.427	27061	0.17
22.430	26954	0.17
22.433	26996	0.17
22.437	27226	0.17
22.440	29650	0.19
22.443	30294	0.19
22.447	31515	0.20
22.450	31866	0.20
22.453	31786	0.20
22.457	31590	0.20
22.460	32221	0.20
22.463	33967	0.21
22.467	35533	0.22
22.470	35834	0.23
22.473	35313	0.22
22.477	33129	0.21
22.480	32011	0.20
22.483	31656	0.20
22.487	30897	0.19
22.490	30325	0.19
22.493	30209	0.19
22.497	30036	0.19
22.500	30240	0.19
22.503	31189	0.20
22.507	30864	0.19
22.510	30538	0.19
22.513	31685	0.20
22.517	32468	0.20
22.520	32231	0.20
22.523	31893	0.20
22.527	31818	0.20
22.530	31805	0.20
22.533	32344	0.20
22.537	34214	0.22
22.540	35922	0.23
22.543	36823	0.23
22.547	37896	0.24
22.550	38037	0.24
22.553	36944	0.23
22.557	36272	0.23
22.560	36038	0.23
22.563	35261	0.22
22.567	34232	0.22
22.570	33777	0.21
22.573	34003	0.21
22.577	34448	0.22
22.580	36834	0.23
22.583	38062	0.24
22.587	38110	0.24
22.590	38296	0.24
22.593	38408	0.24
22.597	38211	0.24
22.600	38433	0.24
22.603	38521	0.24
22.607	37968	0.24
22.610	36292	0.23
22.613	34460	0.22
22.617	33349	0.21
22.620	31794	0.20
22.623	31886	0.20
22.627	31790	0.20
22.630	31409	0.20
22.633	31322	0.20
22.637	30228	0.19
22.640	30822	0.19
22.643	30282	0.19
22.647	30298	0.19
22.650	30188	0.19
22.653	30206	0.19
22.657	31165	0.20
22.660	32503	0.20
22.663	33178	0.21
22.667	33628	0.21
22.670	33947	0.21
22.673	33992	0.21
22.677	34013	0.21
22.680	33610	0.21
22.683	31618	0.20
22.687	31521	0.20
22.690	31904	0.20
22.693	31187	0.20
22.697	30968	0.19
22.700	31317	0.20
22.703	31156	0.20
22.707	31136	0.20
22.710	31892	0.20
22.713	32694	0.21
22.717	33288	0.21
22.720	33360	0.21
22.723	33340	0.21
22.727	32798	0.21
22.730	31613	0.20
22.733	30265	0.19
22.737	29941	0.19
22.740	28373	0.18
22.743	27396	0.17
22.747	26852	0.17
22.750	26518	0.17
22.753	26420	0.17
22.757	26187	0.16
22.760	25980	0.16
22.763	26047	0.16
22.767	26143	0.16
22.770	26305	0.17
22.773	27119	0.17
22.777	27546	0.17
22.780	26662	0.17
22.783	26450	0.17
22.787	26646	0.17
22.790	26478	0.17
22.793	26204	0.16
22.797	26274	0.17
22.800	26354	0.17
22.803	26608	0.17
22.807	27244	0.17
22.810	27932	0.18
22.813	27996	0.18
22.817	28202	0.18
22.820	28616	0.18
22.823	30054	0.19
22.827	31872	0.20
22.830	33524	0.21
22.833	35230	0.22
22.837	34590	0.22
22.840	33538	0.21
22.843	33462	0.21
22.847	33504	0.21
22.850	32394	0.20
22.853	31387	0.20
22.857	30262	0.19
22.860	29120	0.18
22.863	28136	0.18
22.867	27260	0.17
22.870	27119	0.17
22.873	27938	0.18
22.877	28413	0.18
22.880	28624	0.18
22.883	29077	0.18
22.887	29215	0.18
22.890	28422	0.18
22.893	28784	0.18
22.897	28849	0.18
22.900	28104	0.18
22.903	27552	0.17
22.907	27429	0.17
22.910	27155	0.17
22.913	26739	0.17
22.917	26038	0.16
22.920	24704	0.16
22.923	24327	0.15
22.927	24344	0.15
22.930	24195	0.15
22.933	24291	0.15
22.937	24493	0.15
22.940	24598	0.15
22.943	24445	0.15
22.947	24894	0.16
22.950	26886	0.17
22.953	27391	0.17
22.957	27770	0.17
22.960	28940	0.18
22.963	29396	0.18
22.967	29404	0.18
22.970	29169	0.18
22.973	30108	0.19
22.977	29641	0.19
22.980	28873	0.18
22.983	28816	0.18
22.987	28560	0.18
22.990	28357	0.18
22.993	28320	0.18
22.997	27758	0.17
23.000	27802	0.17
23.003	28026	0.18
23.007	27349	0.17
23.010	24935	0.16
23.013	24601	0.15
23.017	24537	0.15
23.020	24236	0.15
23.023	23075	0.15
23.027	22047	0.14
23.030	20547	0.13
23.033	21155	0.13
23.037	21249	0.13
23.040	21513	0.14
23.043	21524	0.14
23.047	21609	0.14
23.050	21334	0.13
23.053	21506	0.14
23.057	21484	0.14
23.060	20793	0.13
23.063	18283	0.11
23.067	21025	0.13
23.070	21427	0.13
23.073	20883	0.13
23.077	20692	0.13
23.080	21490	0.14
23.083	22250	0.14
23.087	23245	0.15
23.090	24316	0.15
23.093	24717	0.16
23.097	24685	0.16
23.100	24330	0.15
23.103	24107	0.15
23.107	22937	0.14
23.110	23016	0.14
23.113	22782	0.14
23.117	21594	0.14
23.120	21265	0.13
23.123	21516	0.14
23.127	21359	0.13
23.130	21267	0.13
23.133	21820	0.14
23.137	22783	0.14
23.140	21448	0.13
23.143	22256	0.14
23.147	23122	0.15
23.150	23551	0.15
23.153	24172	0.15
23.157	25110	0.16
23.160	25445	0.16
23.163	25000	0.16
23.167	24715	0.16
23.170	24657	0.15
23.173	24368	0.15
23.177	24289	0.15
23.180	24208	0.15
23.183	23314	0.15
23.187	23003	0.14
23.190	23197	0.15
23.193	22396	0.14
23.197	21558	0.14
23.200	21694	0.14
23.203	22226	0.14
23.207	22070	0.14
23.210	23107	0.15
23.213	23698	0.15
23.217	23303	0.15
23.220	23855	0.15
23.223	24424	0.15
23.227	24452	0.15
23.230	23933	0.15
23.233	22105	0.14
23.237	22737	0.14
23.240	22612	0.14
23.243	22435	0.14
23.247	21922	0.14
23.250	21342	0.13
23.253	21941	0.14
23.257	23244	0.15
23.260	22228	0.14
23.263	22153	0.14
23.267	22491	0.14
23.270	22755	0.14
23.273	23815	0.15
23.277	24466	0.15
23.280	24441	0.15
23.283	24111	0.15
23.287	24432	0.15
23.290	24188	0.15
23.293	22822	0.14
23.297	22154	0.14
23.300	22189	0.14
23.303	21924	0.14
23.307	21738	0.14
23.310	21487	0.14
23.313	20553	0.13
23.317	19954	0.13
23.320	19830	0.12
23.323	19295	0.12
23.327	19417	0.12
23.330	19468	0.12
23.333	19305	0.12
23.337	19181	0.12
23.340	19365	0.12
23.343	19280	0.12
23.347	19009	0.12
23.350	19077	0.12
23.353	19528	0.12
23.357	19803	0.12
23.360	20094	0.13
23.363	20940	0.13
23.367	21131	0.13
23.370	21301	0.13
23.373	21515	0.14
23.377	21118	0.13
23.380	21037	0.13
23.383	21218	0.13
23.387	21219	0.13
23.390	21471	0.13
23.393	21735	0.14
23.397	21795	0.14
23.400	22916	0.14
23.403	23885	0.15
23.407	23813	0.15
23.410	23393	0.15
23.413	22643	0.14
23.417	22103	0.14
23.420	21155	0.13
23.423	21018	0.13
23.427	19772	0.12
23.430	19582	0.12
23.433	18437	0.12
23.437	19140	0.12
23.440	18947	0.12
23.443	19012	0.12
23.447	19011	0.12
23.450	19350	0.12
23.453	20464	0.13
23.457	21212	0.13
23.460	21465	0.13
23.463	21261	0.13
23.467	21222	0.13
23.470	20692	0.13
23.473	20854	0.13
23.477	21347	0.13
23.480	20985	0.13
23.483	21127	0.13
23.487	20668	0.13
23.490	20909	0.13
23.493	21068	0.13
23.497	20566	0.13
23.500	20225	0.13
23.503	20993	0.13
23.507	22030	0.14
23.510	23768	0.15
23.513	24086	0.15
23.517	24079	0.15
23.520	26747	0.17
23.523	26739	0.17
23.527	27278	0.17
23.530	27544	0.17
23.533	27593	0.17
23.537	27895	0.18
23.540	27663	0.17
23.543	26634	0.17
23.547	25808	0.16
23.550	25276	0.16
23.553	24210	0.15
23.557	24100	0.15
23.560	24823	0.16
23.563	24640	0.15
23.567	23876	0.15
23.570	24192	0.15
23.573	24120	0.15
23.577	23486	0.15
23.580	23990	0.15
23.583	24350	0.15
23.587	23321	0.15
23.590	23742	0.15
23.593	24069	0.15
23.597	23776	0.15
23.600	23488	0.15
23.603	24236	0.15
23.607	25076	0.16
23.610	25513	0.16
23.613	25754	0.16
23.617	24940	0.16
23.620	23457	0.15
23.623	22820	0.14
23.627	22740	0.14
23.630	23009	0.14
23.633	22732	0.14
23.637	22011	0.14
23.640	21544	0.14
23.643	21508	0.14
23.647	21973	0.14
23.650	22445	0.14
23.653	22040	0.14
23.657	20957	0.13
23.660	20954	0.13
23.663	21877	0.14
23.667	22253	0.14
23.670	22407	0.14
23.673	21709	0.14
23.677	21334	0.13
23.680	21428	0.13
23.683	20828	0.13
23.687	19064	0.12
23.690	20375	0.13
23.693	19931	0.13
23.697	19972	0.13
23.700	20376	0.13
23.703	20584	0.13
23.707	20380	0.13
23.710	20172	0.13
23.713	18902	0.12
23.717	19360	0.12
23.720	21233	0.13
23.723	21028	0.13
23.727	20984	0.13
23.730	21150	0.13
23.733	20875	0.13
23.737	20749	0.13
23.740	20821	0.13
23.743	21005	0.13
23.747	21374	0.13
23.750	21453	0.13
23.753	21618	0.14
23.757	21947	0.14
23.760	21584	0.14
23.763	21266	0.13
23.767	21301	0.13
23.770	21536	0.14
23.773	22892	0.14
23.777	25448	0.16
23.780	25788	0.16
23.783	27239	0.17
23.787	28756	0.18
23.790	29903	0.19
23.793	30017	0.19
23.797	30090	0.19
23.800	30023	0.19
23.803	29725	0.19
23.807	29846	0.19
23.810	29960	0.19
23.813	29483	0.19
23.817	28405	0.18
23.820	28065	0.18
23.823	27912	0.18
23.827	28002	0.18
23.830	28321	0.18
23.833	28171	0.18
23.837	28044	0.18
23.840	28173	0.18
23.843	28312	0.18
23.847	27987	0.18
23.850	27881	0.18
23.853	27768	0.17
23.857	25916	0.16
23.860	25547	0.16
23.863	25543	0.16
23.867	25354	0.16
23.870	25294	0.16
23.873	25423	0.16
23.877	25460	0.16
23.880	25380	0.16
23.883	25614	0.16
23.887	25878	0.16
23.890	25756	0.16
23.893	25629	0.16
23.897	25737	0.16
23.900	25665	0.16
23.903	25924	0.16
23.907	27227	0.17
23.910	27511	0.17
23.913	27405	0.17
23.917	27766	0.17
23.920	27640	0.17
23.923	25937	0.16
23.927	25759	0.16
23.930	25626	0.16
23.933	24930	0.16
23.937	22992	0.14
23.940	22829	0.14
23.943	22608	0.14
23.947	22427	0.14
23.950	22662	0.14
23.953	22625	0.14
23.957	22468	0.14
23.960	22391	0.14
23.963	21646	0.14
23.967	21020	0.13
23.970	20822	0.13
23.973	21088	0.13
23.977	21104	0.13
23.980	22036	0.14
23.983	21872	0.14
23.987	21092	0.13
23.990	20815	0.13
23.993	21116	0.13
23.997	21002	0.13
24.000	20981	0.13
24.003	21585	0.14
24.007	22338	0.14
24.010	22760	0.14
24.013	23095	0.15
24.017	22895	0.14
24.020	22522	0.14
24.023	22698	0.14
24.027	22865	0.14
24.030	22621	0.14
24.033	22011	0.14
24.037	21776	0.14
24.040	21832	0.14
24.043	22222	0.14
24.047	22540	0.14
24.050	22521	0.14
24.053	22745	0.14
24.057	22857	0.14
24.060	21876	0.14
24.063	21876	0.14
24.067	23944	0.15
24.070	25214	0.16
24.073	25129	0.16
24.077	25090	0.16
24.080	24994	0.16
24.083	23042	0.14
24.087	23024	0.14
24.090	24925	0.16
24.093	25161	0.16
24.097	24927	0.16
24.100	23605	0.15
24.103	21210	0.13
24.107	22877	0.14
24.110	22954	0.14
24.113	22879	0.14
24.117	22384	0.14
24.120	22582	0.14
24.123	22318	0.14
24.127	22394	0.14
24.130	23328	0.15
24.133	23563	0.15
24.137	24152	0.15
24.140	24508	0.15
24.143	23490	0.15
24.147	21181	0.13
24.150	21582	0.14
24.153	21191	0.13
24.157	21112	0.13
24.160	21099	0.13
24.163	21352	0.13
24.167	21859	0.14
24.170	21655	0.14
24.173	21068	0.13
24.177	20991	0.13
24.180	21101	0.13
24.183	20884	0.13
24.187	20897	0.13
24.190	21192	0.13
24.193	21009	0.13
24.197	21361	0.13
24.200	22652	0.14
24.203	22438	0.14
24.207	22012	0.14
24.210	22493	0.14
24.213	22574	0.14
24.217	22539	0.14
24.220	22786	0.14
24.223	22986	0.14
24.227	22533	0.14
24.230	22013	0.14
24.233	20155	0.13
24.237	20258	0.13
24.240	22424	0.14
24.243	22827	0.14
24.247	22918	0.14
24.250	23206	0.15
24.253	23775	0.15
24.257	23359	0.15
24.260	21180	0.13
24.263	21371	0.13
24.267	22729	0.14
24.270	22604	0.14
24.273	22677	0.14
24.277	23249	0.15
24.280	23831	0.15
24.283	23832	0.15
24.287	23831	0.15
24.290	24320	0.15
24.293	24576	0.15
24.297	24171	0.15
24.300	23657	0.15
24.303	23209	0.15
24.307	22943	0.14
24.310	23025	0.14
24.313	22819	0.14
24.317	22589	0.14
24.320	22999	0.14
24.323	23113	0.15
24.327	22535	0.14
24.330	21646	0.14
24.333	21216	0.13
24.337	21381	0.13
24.340	21529	0.14
24.343	21144	0.13
24.347	21071	0.13
24.350	21177	0.13
24.353	21096	0.13
24.357	21218	0.13
24.360	22201	0.14
24.363	23314	0.15
24.367	24148	0.15
24.370	24228	0.15
24.373	23609	0.15
24.377	22710	0.14
24.380	22635	0.14
24.383	24035	0.15
24.387	24757	0.16
24.390	24303	0.15
24.393	24612	0.15
24.397	25262	0.16
24.400	25600	0.16
24.403	25567	0.16
24.407	25584	0.16
24.410	25315	0.16
24.413	24934	0.16
24.417	25129	0.16
24.420	25205	0.16
24.423	25089	0.16
24.427	25289	0.16
24.430	25173	0.16
24.433	24527	0.15
24.437	24510	0.15
24.440	24921	0.16
24.443	24690	0.16
24.447	24406	0.15
24.450	23966	0.15
24.453	23651	0.15
24.457	24301	0.15
24.460	25376	0.16
24.463	25190	0.16
24.467	24103	0.15
24.470	23673	0.15
24.473	23245	0.15
24.477	22527	0.14
24.480	22200	0.14
24.483	21573	0.14
24.487	20253	0.13
24.490	19872	0.12
24.493	19546	0.12
24.497	19314	0.12
24.500	19899	0.13
24.503	20712	0.13
24.507	20403	0.13
24.510	19970	0.13
24.513	20573	0.13
24.517	20605	0.13
24.520	20295	0.13
24.523	20506	0.13
24.527	20311	0.13
24.530	20318	0.13
24.533	20578	0.13
24.537	20444	0.13
24.540	20389	0.13
24.543	20621	0.13
24.547	20628	0.13
24.550	20176	0.13
24.553	20275	0.13
24.557	21892	0.14
24.560	22497	0.14
24.563	22029	0.14
24.567	21752	0.14
24.570	21980	0.14
24.573	21850	0.14
24.577	21295	0.13
24.580	21473	0.13
24.583	21873	0.14
24.587	20751	0.13
24.590	22084	0.14
24.593	22040	0.14
24.597	21884	0.14
24.600	21869	0.14
24.603	21977	0.14
24.607	22095	0.14
24.610	22136	0.14
24.613	22029	0.14
24.617	21853	0.14
24.620	21868	0.14
24.623	21979	0.14
24.627	22274	0.14
24.630	22790	0.14
24.633	22918	0.14
24.637	22369	0.14
24.640	21981	0.14
24.643	22028	0.14
24.647	22150	0.14
24.650	21917	0.14
24.653	22006	0.14
24.657	22425	0.14
24.660	22560	0.14
24.663	22532	0.14
24.667	22400	0.14
24.670	22406	0.14
24.673	22428	0.14
24.677	22411	0.14
24.680	21692	0.14
24.683	20158	0.13
24.687	20100	0.13
24.690	20071	0.13
24.693	20088	0.13
24.697	20632	0.13
24.700	21407	0.13
24.703	22005	0.14
24.707	22431	0.14
24.710	21971	0.14
24.713	23183	0.15
24.717	22897	0.14
24.720	23219	0.15
24.723	24507	0.15
24.727	25187	0.16
24.730	24205	0.15
24.733	24176	0.15
24.737	24483	0.15
24.740	24193	0.15
24.743	23927	0.15
24.747	24301	0.15
24.750	25072	0.16
24.753	25694	0.16
24.757	25656	0.16
24.760	25621	0.16
24.763	25557	0.16
24.767	25645	0.16
24.770	25686	0.16
24.773	26125	0.16
24.777	27646	0.17
24.780	28263	0.18
24.783	28540	0.18
24.787	26040	0.16
24.790	25548	0.16
24.793	25015	0.16
24.797	27838	0.17
24.800	25723	0.16
24.803	25171	0.16
24.807	24831	0.16
24.810	26417	0.17
24.813	25660	0.16
24.817	23261	0.15
24.820	23013	0.14
24.823	24202	0.15
24.827	23950	0.15
24.830	24069	0.15
24.833	23990	0.15
24.837	23869	0.15
24.840	23696	0.15
24.843	23006	0.14
24.847	22699	0.14
24.850	22736	0.14
24.853	22835	0.14
24.857	22901	0.14
24.860	22872	0.14
24.863	22938	0.14
24.867	22661	0.14
24.870	22567	0.14
24.873	22872	0.14
24.877	22899	0.14
24.880	22686	0.14
24.883	22389	0.14
24.887	21897	0.14
24.890	21660	0.14
24.893	22345	0.14
24.897	22951	0.14
24.900	22330	0.14
24.903	21746	0.14
24.907	22422	0.14
24.910	22597	0.14
24.913	22070	0.14
24.917	22448	0.14
24.920	22778	0.14
24.923	22713	0.14
24.927	22167	0.14
24.930	21969	0.14
24.933	21660	0.14
24.937	21920	0.14
24.940	22651	0.14
24.943	23020	0.14
24.947	23044	0.14
24.950	22970	0.14
24.953	22933	0.14
24.957	23224	0.15
24.960	24680	0.16
24.963	24983	0.16
24.967	22247	0.14
24.970	22952	0.14
24.973	27644	0.17
24.977	27475	0.17
24.980	27843	0.17
24.983	27950	0.18
24.987	28179	0.18
24.990	27372	0.17
24.993	26593	0.17
24.997	25657	0.16
25.000	22268	0.14
25.003	24571	0.15
25.007	23555	0.15
25.010	22836	0.14
25.013	24878	0.16
25.017	26601	0.17
25.020	26988	0.17
25.023	27428	0.17
25.027	27493	0.17
25.030	27772	0.17
25.033	27280	0.17
25.037	27375	0.17
25.040	26075	0.16
25.043	25351	0.16
25.047	24990	0.16
25.050	25051	0.16
25.053	24380	0.15
25.057	25495	0.16
25.060	25196	0.16
25.063	24328	0.15
25.067	23754	0.15
25.070	23710	0.15
25.073	23655	0.15
25.077	23248	0.15
25.080	23201	0.15
25.083	23111	0.15
25.087	23072	0.15
25.090	23287	0.15
25.093	23241	0.15
25.097	23025	0.14
25.100	22916	0.14
25.103	22616	0.14
25.107	22359	0.14
25.110	22397	0.14
25.113	22390	0.14
25.117	22412	0.14
25.120	22807	0.14
25.123	23186	0.15
25.127	23059	0.14
25.130	22648	0.14
25.133	22771	0.14
25.137	23261	0.15
25.140	23470	0.15
25.143	23273	0.15
25.147	22984	0.14
25.150	22798	0.14
25.153	22879	0.14
25.157	23009	0.14
25.160	22996	0.14
25.163	23039	0.14
25.167	23240	0.15
25.170	23331	0.15
25.173	23121	0.15
25.177	23082	0.15
25.180	23197	0.15
25.183	22999	0.14
25.187	23144	0.15
25.190	23088	0.15
25.193	22478	0.14
25.197	22319	0.14
25.200	22708	0.14
25.203	22690	0.14
25.207	22511	0.14
25.210	22583	0.14
25.213	22923	0.14
25.217	23295	0.15
25.220	23724	0.15
25.223	23714	0.15
25.227	23102	0.15
25.230	23198	0.15
25.233	23929	0.15
25.237	24049	0.15
25.240	23778	0.15
25.243	23786	0.15
25.247	23399	0.15
25.250	22546	0.14
25.253	21662	0.14
25.257	22052	0.14
25.260	22002	0.14
25.263	23013	0.14
25.267	23509	0.15
25.270	23703	0.15
25.273	24015	0.15
25.277	24719	0.16
25.280	24513	0.15
25.283	24038	0.15
25.287	23894	0.15
25.290	23768	0.15
25.293	23733	0.15
25.297	23660	0.15
25.300	23635	0.15
25.303	23729	0.15
25.307	23340	0.15
25.310	23110	0.15
25.313	23396	0.15
25.317	22573	0.14
25.320	22122	0.14
25.323	22070	0.14
25.327	21699	0.14
25.330	21967	0.14
25.333	22102	0.14
25.337	21644	0.14
25.340	21446	0.13
25.343	21239	0.13
25.347	21144	0.13
25.350	21476	0.13
25.353	21594	0.14
25.357	21304	0.13
25.360	21381	0.13
25.363	21903	0.14
25.367	21896	0.14
25.370	21468	0.13
25.373	21226	0.13
25.377	21160	0.13
25.380	21185	0.13
25.383	21404	0.13
25.387	21679	0.14
25.390	21812	0.14
25.393	21802	0.14
25.397	21603	0.14
25.400	21388	0.13
25.403	21419	0.13
25.407	21636	0.14
25.410	21507	0.14
25.413	21361	0.13
25.417	21621	0.14
25.420	21847	0.14
25.423	21718	0.14
25.427	21649	0.14
25.430	21232	0.13
25.433	21130	0.13
25.437	21735	0.14
25.440	21758	0.14
25.443	21367	0.13
25.447	21500	0.14
25.450	21906	0.14
25.453	21987	0.14
25.457	21681	0.14
25.460	21971	0.14
25.463	22443	0.14
25.467	22447	0.14
25.470	22665	0.14
25.473	22800	0.14
25.477	22424	0.14
25.480	22501	0.14
25.483	22633	0.14
25.487	22610	0.14
25.490	22627	0.14
25.493	22760	0.14
25.497	22591	0.14
25.500	22075	0.14
25.503	22280	0.14
25.507	22662	0.14
25.510	22674	0.14
25.513	22815	0.14
25.517	22915	0.14
25.520	22867	0.14
25.523	22527	0.14
25.527	21997	0.14
25.530	21385	0.13
25.533	21750	0.14
25.537	21257	0.13
25.540	20736	0.13
25.543	21207	0.13
25.547	21765	0.14
25.550	22071	0.14
25.553	21400	0.13
25.557	20358	0.13
25.560	20059	0.13
25.563	20019	0.13
25.567	20002	0.13
25.570	19989	0.13
25.573	19885	0.12
25.577	20200	0.13
25.580	21623	0.14
25.583	21661	0.14
25.587	21262	0.13
25.590	21872	0.14
25.593	22043	0.14
25.597	21031	0.13
25.600	20311	0.13
25.603	20224	0.13
25.607	20128	0.13
25.610	20134	0.13
25.613	20414	0.13
25.617	20507	0.13
25.620	20311	0.13
25.623	20197	0.13
25.627	20011	0.13
25.630	19874	0.12
25.633	20062	0.13
25.637	20255	0.13
25.640	20022	0.13
25.643	19884	0.12
25.647	19904	0.13
25.650	19739	0.12
25.653	19805	0.12
25.657	20223	0.13
25.660	20410	0.13
25.663	19745	0.12
25.667	19813	0.12
25.670	19577	0.12
25.673	19863	0.12
25.677	20096	0.13
25.680	20034	0.13
25.683	19773	0.12
25.687	20192	0.13
25.690	20727	0.13
25.693	20510	0.13
25.697	20403	0.13
25.700	20870	0.13
25.703	21164	0.13
25.707	21141	0.13
25.710	20911	0.13
25.713	20521	0.13
25.717	20392	0.13
25.720	19576	0.12
25.723	19362	0.12
25.727	19041	0.12
25.730	19476	0.12
25.733	19224	0.12
25.737	19692	0.12
25.740	19518	0.12
25.743	19390	0.12
25.747	19403	0.12
25.750	19340	0.12
25.753	19311	0.12
25.757	19151	0.12
25.760	18968	0.12
25.763	19094	0.12
25.767	19468	0.12
25.770	19969	0.13
25.773	20030	0.13
25.777	21121	0.13
25.780	21426	0.13
25.783	22923	0.14
25.787	23000	0.14
25.790	22627	0.14
25.793	22273	0.14
25.797	21974	0.14
25.800	21915	0.14
25.803	22058	0.14
25.807	21177	0.13
25.810	20340	0.13
25.813	20701	0.13
25.817	20846	0.13
25.820	20361	0.13
25.823	20271	0.13
25.827	20400	0.13
25.830	20587	0.13
25.833	20892	0.13
25.837	21061	0.13
25.840	21339	0.13
25.843	21407	0.13
25.847	20861	0.13
25.850	20754	0.13
25.853	21037	0.13
25.857	21277	0.13
25.860	20902	0.13
25.863	20338	0.13
25.867	20233	0.13
25.870	20666	0.13
25.873	20993	0.13
25.877	20691	0.13
25.880	20430	0.13
25.883	20212	0.13
25.887	19964	0.13
25.890	20138	0.13
25.893	20506	0.13
25.897	20489	0.13
25.900	20375	0.13
25.903	20430	0.13
25.907	20325	0.13
25.910	20280	0.13
25.913	20842	0.13
25.917	21938	0.14
25.920	22124	0.14
25.923	22493	0.14
25.927	22821	0.14
25.930	22294	0.14
25.933	21075	0.13
25.937	21031	0.13
25.940	21043	0.13
25.943	20209	0.13
25.947	19809	0.12
25.950	19831	0.12
25.953	19647	0.12
25.957	19624	0.12
25.960	19945	0.13
25.963	20039	0.13
25.967	19919	0.13
25.970	19958	0.13
25.973	19975	0.13
25.977	20104	0.13
25.980	20280	0.13
25.983	19872	0.12
25.987	19515	0.12
25.990	19521	0.12
25.993	19423	0.12
25.997	19109	0.12
26.000	19042	0.12
26.003	19306	0.12
26.007	19759	0.12
26.010	20209	0.13
26.013	20618	0.13
26.017	20654	0.13
26.020	20310	0.13
26.023	20408	0.13
26.027	20446	0.13
26.030	20101	0.13
26.033	20185	0.13
26.037	20591	0.13
26.040	20428	0.13
26.043	20157	0.13
26.047	20414	0.13
26.050	20588	0.13
26.053	20397	0.13
26.057	20314	0.13
26.060	20186	0.13
26.063	19792	0.12
26.067	20092	0.13
26.070	21071	0.13
26.073	22367	0.14
26.077	23108	0.15
26.080	24926	0.16
26.083	25415	0.16
26.087	25288	0.16
26.090	24971	0.16
26.093	25175	0.16
26.097	25035	0.16
26.100	24302	0.15
26.103	22358	0.14
26.107	22851	0.14
26.110	22396	0.14
26.113	22723	0.14
26.117	22374	0.14
26.120	21139	0.13
26.123	20936	0.13
26.127	21175	0.13
26.130	21029	0.13
26.133	20828	0.13
26.137	20908	0.13
26.140	20659	0.13
26.143	20870	0.13
26.147	21737	0.14
26.150	21939	0.14
26.153	21364	0.13
26.157	21529	0.14
26.160	21779	0.14
26.163	21559	0.14
26.167	21626	0.14
26.170	21872	0.14
26.173	21540	0.14
26.177	20815	0.13
26.180	20898	0.13
26.183	20751	0.13
26.187	20055	0.13
26.190	19999	0.13
26.193	20443	0.13
26.197	20611	0.13
26.200	20456	0.13
26.203	20558	0.13
26.207	20626	0.13
26.210	19954	0.13
26.213	19605	0.12
26.217	20315	0.13
26.220	20786	0.13
26.223	20712	0.13
26.227	20886	0.13
26.230	21128	0.13
26.233	21109	0.13
26.237	21087	0.13
26.240	21222	0.13
26.243	20911	0.13
26.247	19909	0.13
26.250	19747	0.12
26.253	20150	0.13
26.257	20047	0.13
26.260	19461	0.12
26.263	20536	0.13
26.267	20664	0.13
26.270	20925	0.13
26.273	21278	0.13
26.277	21199	0.13
26.280	21212	0.13
26.283	21922	0.14
26.287	22184	0.14
26.290	21915	0.14
26.293	21763	0.14
26.297	21355	0.13
26.300	20975	0.13
26.303	21107	0.13
26.307	21152	0.13
26.310	20890	0.13
26.313	20906	0.13
26.317	20909	0.13
26.320	20711	0.13
26.323	20790	0.13
26.327	21037	0.13
26.330	20696	0.13
26.333	19190	0.12
26.337	20586	0.13
26.340	20935	0.13
26.343	20933	0.13
26.347	21162	0.13
26.350	21162	0.13
26.353	19835	0.12
26.357	19476	0.12
26.360	20350	0.13
26.363	19863	0.12
26.367	19232	0.12
26.370	20350	0.13
26.373	20989	0.13
26.377	20604	0.13
26.380	20418	0.13
26.383	20562	0.13
26.387	20425	0.13
26.390	20741	0.13
26.393	20983	0.13
26.397	20629	0.13
26.400	20265	0.13
26.403	20666	0.13
26.407	20974	0.13
26.410	21294	0.13
26.413	22517	0.14
26.417	22801	0.14
26.420	22358	0.14
26.423	21197	0.13
26.427	20582	0.13
26.430	20361	0.13
26.433	20519	0.13
26.437	20700	0.13
26.440	20682	0.13
26.443	20638	0.13
26.447	20797	0.13
26.450	21045	0.13
26.453	21033	0.13
26.457	21701	0.14
26.460	22348	0.14
26.463	22425	0.14
26.467	22371	0.14
26.470	22338	0.14
26.473	21488	0.14
26.477	20929	0.13
26.480	21478	0.13
26.483	21485	0.14
26.487	20930	0.13
26.490	20849	0.13
26.493	20796	0.13
26.497	20565	0.13
26.500	20613	0.13
26.503	20705	0.13
26.507	20576	0.13
26.510	20670	0.13
26.513	21315	0.13
26.517	21899	0.14
26.520	21815	0.14
26.523	21465	0.13
26.527	20771	0.13
26.530	20612	0.13
26.533	21584	0.14
26.537	22051	0.14
26.540	21841	0.14
26.543	22279	0.14
26.547	22524	0.14
26.550	22218	0.14
26.553	22135	0.14
26.557	22203	0.14
26.560	21782	0.14
26.563	21448	0.13
26.567	21392	0.13
26.570	20953	0.13
26.573	20523	0.13
26.577	20441	0.13
26.580	20475	0.13
26.583	20478	0.13
26.587	20340	0.13
26.590	20560	0.13
26.593	20235	0.13
26.597	20322	0.13
26.600	20320	0.13
26.603	20368	0.13
26.607	20488	0.13
26.610	20398	0.13
26.613	19992	0.13
26.617	20020	0.13
26.620	20466	0.13
26.623	20680	0.13
26.627	20637	0.13
26.630	20758	0.13
26.633	20760	0.13
26.637	20491	0.13
26.640	20331	0.13
26.643	20366	0.13
26.647	20249	0.13
26.650	20282	0.13
26.653	20746	0.13
26.657	20891	0.13
26.660	20695	0.13
26.663	20677	0.13
26.667	20495	0.13
26.670	20380	0.13
26.673	20515	0.13
26.677	20710	0.13
26.680	20692	0.13
26.683	20830	0.13
26.687	21751	0.14
26.690	22999	0.14
26.693	23433	0.15
26.697	23491	0.15
26.700	23319	0.15
26.703	23202	0.15
26.707	23498	0.15
26.710	23517	0.15
26.713	22757	0.14
26.717	21728	0.14
26.720	21207	0.13
26.723	20660	0.13
26.727	20411	0.13
26.730	20479	0.13
26.733	20429	0.13
26.737	20352	0.13
26.740	20616	0.13
26.743	21391	0.13
26.747	21570	0.14
26.750	21154	0.13
26.753	21007	0.13
26.757	21128	0.13
26.760	22874	0.14
26.763	23496	0.15
26.767	22805	0.14
26.770	22649	0.14
26.773	23101	0.15
26.777	23236	0.15
26.780	23051	0.14
26.783	22483	0.14
26.787	21753	0.14
26.790	22282	0.14
26.793	23481	0.15
26.797	23925	0.15
26.800	23547	0.15
26.803	23214	0.15
26.807	23334	0.15
26.810	23397	0.15
26.813	23813	0.15
26.817	24445	0.15
26.820	24373	0.15
26.823	23719	0.15
26.827	23367	0.15
26.830	23375	0.15
26.833	23600	0.15
26.837	23810	0.15
26.840	23962	0.15
26.843	23869	0.15
26.847	23943	0.15
26.850	23940	0.15
26.853	23491	0.15
26.857	23505	0.15
26.860	23704	0.15
26.863	23734	0.15
26.867	23953	0.15
26.870	24180	0.15
26.873	24431	0.15
26.877	24602	0.15
26.880	24790	0.16
26.883	24709	0.16
26.887	24240	0.15
26.890	24364	0.15
26.893	24595	0.15
26.897	23979	0.15
26.900	23433	0.15
26.903	23259	0.15
26.907	23217	0.15
26.910	23407	0.15
26.913	22827	0.14
26.917	22344	0.14
26.920	22389	0.14
26.923	22749	0.14
26.927	22857	0.14
26.930	22575	0.14
26.933	22418	0.14
26.937	22545	0.14
26.940	21952	0.14
26.943	21437	0.13
26.947	21617	0.14
26.950	21648	0.14
26.953	21465	0.13
26.957	21454	0.13
26.960	21226	0.13
26.963	20800	0.13
26.967	20875	0.13
26.970	21761	0.14
26.973	22390	0.14
26.977	22355	0.14
26.980	22395	0.14
26.983	22296	0.14
26.987	22041	0.14
26.990	21906	0.14
26.993	21503	0.14
26.997	21150	0.13
27.000	21155	0.13
27.003	21242	0.13
27.007	21204	0.13
27.010	21192	0.13
27.013	21231	0.13
27.017	20996	0.13
27.020	20887	0.13
27.023	21079	0.13
27.027	20993	0.13
27.030	21036	0.13
27.033	21590	0.14
27.037	21766	0.14
27.040	21022	0.13
27.043	20766	0.13
27.047	21133	0.13
27.050	21190	0.13
27.053	21280	0.13
27.057	21478	0.13
27.060	20928	0.13
27.063	20569	0.13
27.067	20651	0.13
27.070	20610	0.13
27.073	20625	0.13
27.077	20925	0.13
27.080	20830	0.13
27.083	20688	0.13
27.087	20924	0.13
27.090	20891	0.13
27.093	21034	0.13
27.097	21352	0.13
27.100	21535	0.14
27.103	21466	0.13
27.107	21502	0.14
27.110	21667	0.14
27.113	21712	0.14
27.117	21899	0.14
27.120	22460	0.14
27.123	22554	0.14
27.127	22007	0.14
27.130	21409	0.13
27.133	21531	0.14
27.137	21939	0.14
27.140	22214	0.14
27.143	22369	0.14
27.147	22357	0.14
27.150	22183	0.14
27.153	22135	0.14
27.157	22149	0.14
27.160	22365	0.14
27.163	22523	0.14
27.167	22512	0.14
27.170	22354	0.14
27.173	22348	0.14
27.177	22454	0.14
27.180	21413	0.13
27.183	21152	0.13
27.187	22146	0.14
27.190	22500	0.14
27.193	22565	0.14
27.197	22670	0.14
27.200	22611	0.14
27.203	22345	0.14
27.207	22459	0.14
27.210	22525	0.14
27.213	22212	0.14
27.217	21896	0.14
27.220	22242	0.14
27.223	22436	0.14
27.227	22364	0.14
27.230	22403	0.14
27.233	21863	0.14
27.237	21427	0.13
27.240	21637	0.14
27.243	21642	0.14
27.247	21354	0.13
27.250	21505	0.14
27.253	21720	0.14
27.257	21173	0.13
27.260	21004	0.13
27.263	21386	0.13
27.267	21246	0.13
27.270	21147	0.13
27.273	21881	0.14
27.277	22194	0.14
27.280	22083	0.14
27.283	22440	0.14
27.287	22600	0.14
27.290	22087	0.14
27.293	21317	0.13
27.297	21307	0.13
27.300	21506	0.14
27.303	21694	0.14
27.307	21818	0.14
27.310	21696	0.14
27.313	21268	0.13
27.317	21080	0.13
27.320	21079	0.13
27.323	20962	0.13
27.327	21005	0.13
27.330	21431	0.13
27.333	21367	0.13
27.337	21271	0.13
27.340	21603	0.14
27.343	21674	0.14
27.347	21231	0.13
27.350	21149	0.13
27.353	21270	0.13
27.357	21050	0.13
27.360	21798	0.14
27.363	21498	0.14
27.367	21216	0.13
27.370	21318	0.13
27.373	21405	0.13
27.377	21251	0.13
27.380	21195	0.13
27.383	21439	0.13
27.387	21538	0.14
27.390	21364	0.13
27.393	21439	0.13
27.397	21537	0.14
27.400	21546	0.14
27.403	21972	0.14
27.407	21954	0.14
27.410	21558	0.14
27.413	21399	0.13
27.417	21281	0.13
27.420	21251	0.13
27.423	21330	0.13
27.427	21553	0.14
27.430	21613	0.14
27.433	21425	0.13
27.437	21450	0.13
27.440	21797	0.14
27.443	22779	0.14
27.447	23645	0.15
27.450	23807	0.15
27.453	23791	0.15
27.457	23725	0.15
27.460	23543	0.15
27.463	23601	0.15
27.467	23795	0.15
27.470	23855	0.15
27.473	23552	0.15
27.477	23247	0.15
27.480	23594	0.15
27.483	23489	0.15
27.487	22991	0.14
27.490	22615	0.14
27.493	22138	0.14
27.497	21532	0.14
27.500	21259	0.13
27.503	21647	0.14
27.507	21534	0.14
27.510	20780	0.13
27.513	20697	0.13
27.517	20834	0.13
27.520	20817	0.13
27.523	20807	0.13
27.527	20795	0.13
27.530	20706	0.13
27.533	20643	0.13
27.537	20807	0.13
27.540	20618	0.13
27.543	19958	0.13
27.547	20041	0.13
27.550	20626	0.13
27.553	20783	0.13
27.557	20603	0.13
27.560	21238	0.13
27.563	20823	0.13
27.567	20732	0.13
27.570	21043	0.13
27.573	21013	0.13
27.577	21091	0.13
27.580	21398	0.13
27.583	20944	0.13
27.587	20850	0.13
27.590	21205	0.13
27.593	21237	0.13
27.597	21068	0.13
27.600	21233	0.13
27.603	21574	0.14
27.607	21738	0.14
27.610	21626	0.14
27.613	21772	0.14
27.617	22208	0.14
27.620	22694	0.14
27.623	23062	0.14
27.627	22482	0.14
27.630	22106	0.14
27.633	22389	0.14
27.637	22293	0.14
27.640	21831	0.14
27.643	22406	0.14
27.647	22628	0.14
27.650	22217	0.14
27.653	21421	0.13
27.657	21313	0.13
27.660	21748	0.14
27.663	22025	0.14
27.667	22124	0.14
27.670	22046	0.14
27.673	22169	0.14
27.677	22487	0.14
27.680	22367	0.14
27.683	22173	0.14
27.687	22470	0.14
27.690	22138	0.14
27.693	21502	0.14
27.697	21779	0.14
27.700	21721	0.14
27.703	21362	0.13
27.707	21617	0.14
27.710	22248	0.14
27.713	22584	0.14
27.717	22719	0.14
27.720	22834	0.14
27.723	22971	0.14
27.727	22797	0.14
27.730	22635	0.14
27.733	22571	0.14
27.737	22094	0.14
27.740	22079	0.14
27.743	22266	0.14
27.747	22098	0.14
27.750	22015	0.14
27.753	22296	0.14
27.757	22540	0.14
27.760	22375	0.14
27.763	22166	0.14
27.767	22241	0.14
27.770	22258	0.14
27.773	21919	0.14
27.777	22118	0.14
27.780	22416	0.14
27.783	22490	0.14
27.787	22464	0.14
27.790	22403	0.14
27.793	22082	0.14
27.797	21711	0.14
27.800	21372	0.13
27.803	21386	0.13
27.807	21912	0.14
27.810	22323	0.14
27.813	22436	0.14
27.817	22487	0.14
27.820	22616	0.14
27.823	22521	0.14
27.827	22374	0.14
27.830	22565	0.14
27.833	22649	0.14
27.837	22409	0.14
27.840	22451	0.14
27.843	22758	0.14
27.847	22738	0.14
27.850	22443	0.14
27.853	22266	0.14
27.857	22308	0.14
27.860	22463	0.14
27.863	22671	0.14
27.867	22574	0.14
27.870	22346	0.14
27.873	22344	0.14
27.877	22326	0.14
27.880	22372	0.14
27.883	22423	0.14
27.887	22463	0.14
27.890	22522	0.14
27.893	22586	0.14
27.897	22924	0.14
27.900	23221	0.15
27.903	22900	0.14
27.907	22757	0.14
27.910	22668	0.14
27.913	22891	0.14
27.917	23181	0.15
27.920	23093	0.15
27.923	22762	0.14
27.927	22743	0.14
27.930	22998	0.14
27.933	22820	0.14
27.937	22991	0.14
27.940	22902	0.14
27.943	22249	0.14
27.947	22253	0.14
27.950	22822	0.14
27.953	24029	0.15
27.957	24952	0.16
27.960	24991	0.16
27.963	25026	0.16
27.967	25175	0.16
27.970	25120	0.16
27.973	25165	0.16
27.977	25096	0.16
27.980	25106	0.16
27.983	25098	0.16
27.987	25073	0.16
27.990	25009	0.16
27.993	24666	0.16
27.997	24632	0.15
28.000	25132	0.16
28.003	25220	0.16
28.007	25187	0.16
28.010	25116	0.16
28.013	24976	0.16
28.017	24931	0.16
28.020	24963	0.16
28.023	24759	0.16
28.027	24811	0.16
28.030	24878	0.16
28.033	24704	0.16
28.037	24665	0.16
28.040	24637	0.15
28.043	24221	0.15
28.047	24116	0.15
28.050	24416	0.15
28.053	24639	0.15
28.057	24775	0.16
28.060	24894	0.16
28.063	24604	0.15
28.067	24119	0.15
28.070	24404	0.15
28.073	24622	0.15
28.077	24509	0.15
28.080	24485	0.15
28.083	24617	0.15
28.087	24524	0.15
28.090	24480	0.15
28.093	24727	0.16
28.097	24770	0.16
28.100	24617	0.15
28.103	24764	0.16
28.107	24968	0.16
28.110	24622	0.15
28.113	24584	0.15
28.117	25064	0.16
28.120	25213	0.16
28.123	24747	0.16
28.127	24612	0.15
28.130	24570	0.15
28.133	24513	0.15
28.137	24761	0.16
28.140	24804	0.16
28.143	24311	0.15
28.147	24570	0.15
28.150	24908	0.16
28.153	25079	0.16
28.157	25654	0.16
28.160	25949	0.16
28.163	25489	0.16
28.167	25325	0.16
28.170	25578	0.16
28.173	25243	0.16
28.177	24816	0.16
28.180	25203	0.16
28.183	26055	0.16
28.187	25730	0.16
28.190	25140	0.16
28.193	24978	0.16
28.197	24713	0.16
28.200	25214	0.16
28.203	26072	0.16
28.207	26166	0.16
28.210	26379	0.17
28.213	26715	0.17
28.217	26465	0.17
28.220	25772	0.16
28.223	25575	0.16
28.227	25413	0.16
28.230	24933	0.16
28.233	24783	0.16
28.237	25076	0.16
28.240	25065	0.16
28.243	25300	0.16
28.247	25511	0.16
28.250	25418	0.16
28.253	25698	0.16
28.257	26214	0.16
28.260	26187	0.16
28.263	25919	0.16
28.267	25861	0.16
28.270	25688	0.16
28.273	25493	0.16
28.277	24948	0.16
28.280	24648	0.15
28.283	24851	0.16
28.287	24792	0.16
28.290	24932	0.16
28.293	24942	0.16
28.297	24439	0.15
28.300	24296	0.15
28.303	24876	0.16
28.307	25312	0.16
28.310	25574	0.16
28.313	25603	0.16
28.317	25387	0.16
28.320	25495	0.16
28.323	25627	0.16
28.327	24905	0.16
28.330	24217	0.15
28.333	24654	0.15
28.337	25221	0.16
28.340	25140	0.16
28.343	25246	0.16
28.347	25617	0.16
28.350	25240	0.16
28.353	25257	0.16
28.357	25447	0.16
28.360	25192	0.16
28.363	24810	0.16
28.367	24905	0.16
28.370	24979	0.16
28.373	24749	0.16
28.377	25011	0.16
28.380	25479	0.16
28.383	25461	0.16
28.387	25396	0.16
28.390	25518	0.16
28.393	24945	0.16
28.397	24567	0.15
28.400	24679	0.16
28.403	24893	0.16
28.407	25163	0.16
28.410	24980	0.16
28.413	24899	0.16
28.417	25212	0.16
28.420	25321	0.16
28.423	25427	0.16
28.427	26248	0.16
28.430	26617	0.17
28.433	26739	0.17
28.437	26540	0.17
28.440	26043	0.16
28.443	26262	0.17
28.447	26639	0.17
28.450	26659	0.17
28.453	26540	0.17
28.457	26503	0.17
28.460	26241	0.16
28.463	26346	0.17
28.467	26636	0.17
28.470	26557	0.17
28.473	26638	0.17
28.477	26761	0.17
28.480	26469	0.17
28.483	26060	0.16
28.487	26307	0.17
28.490	26412	0.17
28.493	26330	0.17
28.497	26646	0.17
28.500	26884	0.17
28.503	26486	0.17
28.507	26317	0.17
28.510	26548	0.17
28.513	26282	0.17
28.517	26450	0.17
28.520	27148	0.17
28.523	27134	0.17
28.527	26812	0.17
28.530	26789	0.17
28.533	26936	0.17
28.537	26882	0.17
28.540	26498	0.17
28.543	26448	0.17
28.547	26398	0.17
28.550	26585	0.17
28.553	26629	0.17
28.557	26377	0.17
28.560	26165	0.16
28.563	26175	0.16
28.567	26341	0.17
28.570	26475	0.17
28.573	26594	0.17
28.577	26462	0.17
28.580	26002	0.16
28.583	25711	0.16
28.587	26082	0.16
28.590	26220	0.16
28.593	26120	0.16
28.597	26064	0.16
28.600	26093	0.16
28.603	26193	0.16
28.607	26299	0.17
28.610	26340	0.17
28.613	26601	0.17
28.617	26814	0.17
28.620	27180	0.17
28.623	27342	0.17
28.627	26913	0.17
28.630	26904	0.17
28.633	26633	0.17
28.637	26529	0.17
28.640	26895	0.17
28.643	27247	0.17
28.647	26989	0.17
28.650	26739	0.17
28.653	26561	0.17
28.657	26525	0.17
28.660	26804	0.17
28.663	27397	0.17
28.667	27351	0.17
28.670	26580	0.17
28.673	26696	0.17
28.677	26874	0.17
28.680	27260	0.17
28.683	27909	0.18
28.687	28265	0.18
28.690	27929	0.18
28.693	27636	0.17
28.697	27442	0.17
28.700	27098	0.17
28.703	27151	0.17
28.707	27494	0.17
28.710	27954	0.18
28.713	28229	0.18
28.717	28624	0.18
28.720	28539	0.18
28.723	27971	0.18
28.727	27996	0.18
28.730	28734	0.18
28.733	29184	0.18
28.737	28743	0.18
28.740	28476	0.18
28.743	28711	0.18
28.747	28569	0.18
28.750	29006	0.18
28.753	29472	0.19
28.757	29897	0.19
28.760	29990	0.19
28.763	29544	0.19
28.767	29382	0.18
28.770	29603	0.19
28.773	29709	0.19
28.777	29258	0.18
28.780	29012	0.18
28.783	29133	0.18
28.787	29699	0.19
28.790	30224	0.19
28.793	30301	0.19
28.797	29739	0.19
28.800	29597	0.19
28.803	30210	0.19
28.807	30471	0.19
28.810	29953	0.19
28.813	29698	0.19
28.817	29686	0.19
28.820	29098	0.18
28.823	28815	0.18
28.827	29012	0.18
28.830	29121	0.18
28.833	29245	0.18
28.837	29306	0.18
28.840	29138	0.18
28.843	29140	0.18
28.847	30266	0.19
28.850	30681	0.19
28.853	29653	0.19
28.857	28947	0.18
28.860	29326	0.18
28.863	29900	0.19
28.867	30516	0.19
28.870	30871	0.19
28.873	30640	0.19
28.877	30525	0.19
28.880	30394	0.19
28.883	30146	0.19
28.887	30179	0.19
28.890	30468	0.19
28.893	30689	0.19
28.897	30458	0.19
28.900	30275	0.19
28.903	30476	0.19
28.907	30447	0.19
28.910	30449	0.19
28.913	30592	0.19
28.917	30563	0.19
28.920	30534	0.19
28.923	30466	0.19
28.927	30097	0.19
28.930	30041	0.19
28.933	30310	0.19
28.937	30114	0.19
28.940	29188	0.18
28.943	28775	0.18
28.947	29722	0.19
28.950	30313	0.19
28.953	30424	0.19
28.957	30467	0.19
28.960	30478	0.19
28.963	30437	0.19
28.967	30837	0.19
28.970	30901	0.19
28.973	30444	0.19
28.977	30109	0.19
28.980	30150	0.19
28.983	30350	0.19
28.987	30446	0.19
28.990	30423	0.19
28.993	30431	0.19
28.997	30186	0.19
29.000	30190	0.19
29.003	30538	0.19
29.007	30566	0.19
29.010	30513	0.19
29.013	30275	0.19
29.017	30149	0.19
29.020	30213	0.19
29.023	30384	0.19
29.027	30473	0.19
29.030	30382	0.19
29.033	30315	0.19
29.037	30318	0.19
29.040	30287	0.19
29.043	30353	0.19
29.047	30282	0.19
29.050	30252	0.19
29.053	30308	0.19
29.057	30543	0.19
29.060	30371	0.19
29.063	30353	0.19
29.067	30618	0.19
29.070	30664	0.19
29.073	30688	0.19
29.077	30702	0.19
29.080	30870	0.19
29.083	30839	0.19
29.087	30918	0.19
29.090	31077	0.20
29.093	30928	0.19
29.097	30985	0.19
29.100	31223	0.20
29.103	31260	0.20
29.107	30991	0.19
29.110	31178	0.20
29.113	31328	0.20
29.117	31172	0.20
29.120	31110	0.20
29.123	31072	0.20
29.127	30725	0.19
29.130	30724	0.19
29.133	30930	0.19
29.137	30558	0.19
29.140	30340	0.19
29.143	30641	0.19
29.147	30851	0.19
29.150	30641	0.19
29.153	30782	0.19
29.157	31323	0.20
29.160	31517	0.20
29.163	31361	0.20
29.167	31179	0.20
29.170	30967	0.19
29.173	30923	0.19
29.177	31224	0.20
29.180	31132	0.20
29.183	31094	0.20
29.187	31448	0.20
29.190	31542	0.20
29.193	31627	0.20
29.197	32098	0.20
29.200	32316	0.20
29.203	32130	0.20
29.207	32014	0.20
29.210	32265	0.20
29.213	31959	0.20
29.217	31424	0.20
29.220	31705	0.20
29.223	31952	0.20
29.227	31817	0.20
29.230	31424	0.20
29.233	31190	0.20
29.237	31078	0.20
29.240	31153	0.20
29.243	31798	0.20
29.247	32074	0.20
29.250	31796	0.20
29.253	32394	0.20
29.257	32700	0.21
29.260	32495	0.20
29.263	32599	0.20
29.267	32740	0.21
29.270	32492	0.20
29.273	32274	0.20
29.277	32238	0.20
29.280	32271	0.20
29.283	32243	0.20
29.287	32397	0.20
29.290	32605	0.20
29.293	32714	0.21
29.297	32522	0.20
29.300	32332	0.20
29.303	32613	0.20
29.307	32747	0.21
29.310	32728	0.21
29.313	32468	0.20
29.317	32324	0.20
29.320	32191	0.20
29.323	32164	0.20
29.327	32247	0.20
29.330	32665	0.21
29.333	32819	0.21
29.337	32701	0.21
29.340	32478	0.20
29.343	31896	0.20
29.347	31318	0.20
29.350	31371	0.20
29.353	31523	0.20
29.357	31488	0.20
29.360	31505	0.20
29.363	32101	0.20
29.367	32606	0.20
29.370	32678	0.21
29.373	32764	0.21
29.377	32506	0.20
29.380	32231	0.20
29.383	32603	0.20
29.387	32825	0.21
29.390	32464	0.20
29.393	32400	0.20
29.397	32749	0.21
29.400	32791	0.21
29.403	32702	0.21
29.407	32792	0.21
29.410	33013	0.21
29.413	33022	0.21
29.417	32933	0.21
29.420	33139	0.21
29.423	32950	0.21
29.427	32542	0.20
29.430	32796	0.21
29.433	33146	0.21
29.437	32925	0.21
29.440	32943	0.21
29.443	33079	0.21
29.447	32917	0.21
29.450	32974	0.21
29.453	33159	0.21
29.457	33085	0.21
29.460	33079	0.21
29.463	33336	0.21
29.467	33272	0.21
29.470	33408	0.21
29.473	33867	0.21
29.477	33652	0.21
29.480	33419	0.21
29.483	33984	0.21
29.487	33850	0.21
29.490	33389	0.21
29.493	33281	0.21
29.497	33730	0.21
29.500	33729	0.21
29.503	34572	0.22
29.507	35380	0.22
29.510	35065	0.22
29.513	34564	0.22
29.517	34656	0.22
29.520	34588	0.22
29.523	35153	0.22
29.527	35630	0.22
29.530	35399	0.22
29.533	34914	0.22
29.537	34926	0.22
29.540	35235	0.22
29.543	35387	0.22
29.547	35367	0.22
29.550	35024	0.22
29.553	35031	0.22
29.557	35517	0.22
29.560	35933	0.23
29.563	35742	0.22
29.567	35169	0.22
29.570	35104	0.22
29.573	35082	0.22
29.577	34910	0.22
29.580	34920	0.22
29.583	34991	0.22
29.587	35493	0.22
29.590	35487	0.22
29.593	35214	0.22
29.597	35068	0.22
29.600	34560	0.22
29.603	33727	0.21
29.607	33542	0.21
29.610	33567	0.21
29.613	34025	0.21
29.617	34723	0.22
29.620	35051	0.22
29.623	34907	0.22
29.627	34525	0.22
29.630	33710	0.21
29.633	33490	0.21
29.637	34039	0.21
29.640	34927	0.22
29.643	35168	0.22
29.647	35026	0.22
29.650	35143	0.22
29.653	35437	0.22
29.657	35639	0.22
29.660	35497	0.22
29.663	34789	0.22
29.667	34221	0.22
29.670	34654	0.22
29.673	34943	0.22
29.677	34700	0.22
29.680	34266	0.22
29.683	33976	0.21
29.687	34710	0.22
29.690	35446	0.22
29.693	35265	0.22
29.697	34694	0.22
29.700	34563	0.22
29.703	35229	0.22
29.707	35525	0.22
29.710	35430	0.22
29.713	35279	0.22
29.717	35090	0.22
29.720	35096	0.22
29.723	35385	0.22
29.727	35224	0.22
29.730	34278	0.22
29.733	34373	0.22
29.737	35054	0.22
29.740	35410	0.22
29.743	35689	0.22
29.747	35698	0.22
29.750	35379	0.22
29.753	35062	0.22
29.757	35515	0.22
29.760	35879	0.23
29.763	35921	0.23
29.767	35946	0.23
29.770	35873	0.23
29.773	35517	0.22
29.777	35587	0.22
29.780	35636	0.22
29.783	34966	0.22
29.787	34413	0.22
29.790	34974	0.22
29.793	35595	0.22
29.797	35545	0.22
29.800	35891	0.23
29.803	36386	0.23
29.807	36041	0.23
29.810	36144	0.23
29.813	36666	0.23
29.817	36141	0.23
29.820	36298	0.23
29.823	37281	0.23
29.827	37444	0.24
29.830	37294	0.23
29.833	37410	0.24
29.837	37148	0.23
29.840	36675	0.23
29.843	37039	0.23
29.847	37416	0.24
29.850	36720	0.23
29.853	36555	0.23
29.857	37551	0.24
29.860	37810	0.24
29.863	36970	0.23
29.867	36926	0.23
29.870	37056	0.23
29.873	36852	0.23
29.877	37047	0.23
29.880	36973	0.23
29.883	37174	0.23
29.887	37775	0.24
29.890	38096	0.24
29.893	38106	0.24
29.897	38575	0.24
29.900	39340	0.25
29.903	39331	0.25
29.907	38676	0.24
29.910	38442	0.24
29.913	38141	0.24
29.917	37948	0.24
29.920	38250	0.24
29.923	38315	0.24
29.927	37721	0.24
29.930	37956	0.24
29.933	38163	0.24
29.937	38071	0.24
29.940	38215	0.24
29.943	38604	0.24
29.947	39061	0.25
29.950	39566	0.25
29.953	39932	0.25
29.957	40068	0.25
29.960	40226	0.25
29.963	40158	0.25
29.967	39974	0.25
29.970	39789	0.25
29.973	40137	0.25
29.977	40394	0.25
29.980	40480	0.25
29.983	40447	0.25
29.987	40391	0.25
29.990	40089	0.25
29.993	39165	0.25
29.997	39304	0.25
30.000	40123	0.25
30.003	40191	0.25
30.007	40236	0.25
30.010	40407	0.25
30.013	40344	0.25
30.017	40239	0.25
30.020	40281	0.25
30.023	40383	0.25
30.027	40273	0.25
30.030	40316	0.25
30.033	40450	0.25
30.037	40492	0.25
30.040	40472	0.25
30.043	40599	0.26
30.047	40384	0.25
30.050	40311	0.25
30.053	40354	0.25
30.057	40665	0.26
30.060	40606	0.26
30.063	40752	0.26
30.067	40980	0.26
30.070	40330	0.25
30.073	39254	0.25
30.077	39375	0.25
30.080	39983	0.25
30.083	40118	0.25
30.087	40128	0.25
30.090	40409	0.25
30.093	40635	0.26
30.097	40513	0.25
30.100	40547	0.25
30.103	40993	0.26
30.107	41414	0.26
30.110	41152	0.26
30.113	40574	0.26
30.117	40620	0.26
30.120	41333	0.26
30.123	41439	0.26
30.127	41267	0.26
30.130	41700	0.26
30.133	41823	0.26
30.137	40817	0.26
30.140	40736	0.26
30.143	41209	0.26
30.147	41093	0.26
30.150	41249	0.26
30.153	41520	0.26
30.157	41168	0.26
30.160	40981	0.26
30.163	41297	0.26
30.167	41590	0.26
30.170	41884	0.26
30.173	42332	0.27
30.177	42462	0.27
30.180	42448	0.27
30.183	42558	0.27
30.187	42597	0.27
30.190	42370	0.27
30.193	41873	0.26
30.197	41507	0.26
30.200	41353	0.26
30.203	41471	0.26
30.207	41479	0.26
30.210	41227	0.26
30.213	41347	0.26
30.217	41834	0.26
30.220	42529	0.27
30.223	42666	0.27
30.227	42314	0.27
30.230	42038	0.26
30.233	41776	0.26
30.237	41872	0.26
30.240	42488	0.27
30.243	42924	0.27
30.247	42657	0.27
30.250	41981	0.26
30.253	42406	0.27
30.257	42253	0.27
30.260	42384	0.27
30.263	42928	0.27
30.267	42750	0.27
30.270	42120	0.26
30.273	42182	0.27
30.277	42492	0.27
30.280	43059	0.27
30.283	42989	0.27
30.287	42805	0.27
30.290	42984	0.27
30.293	43098	0.27
30.297	43254	0.27
30.300	42965	0.27
30.303	42733	0.27
30.307	43259	0.27
30.310	44557	0.28
30.313	44595	0.28
30.317	44158	0.28
30.320	43338	0.27
30.323	42911	0.27
30.327	43067	0.27
30.330	43264	0.27
30.333	43100	0.27
30.337	43022	0.27
30.340	43499	0.27
30.343	43626	0.27
30.347	43427	0.27
30.350	44119	0.28
30.353	44737	0.28
30.357	44765	0.28
30.360	44663	0.28
30.363	44881	0.28
30.367	44732	0.28
30.370	44115	0.28
30.373	44054	0.28
30.377	43426	0.27
30.380	43143	0.27
30.383	43195	0.27
30.387	43382	0.27
30.390	44216	0.28
30.393	45004	0.28
30.397	45077	0.28
30.400	44928	0.28
30.403	44877	0.28
30.407	44878	0.28
30.410	44932	0.28
30.413	45318	0.28
30.417	45902	0.29
30.420	45838	0.29
30.423	45670	0.29
30.427	45563	0.29
30.430	45041	0.28
30.433	44741	0.28
30.437	45012	0.28
30.440	44834	0.28
30.443	44437	0.28
30.447	44783	0.28
30.450	44671	0.28
30.453	43569	0.27
30.457	43382	0.27
30.460	44247	0.28
30.463	44430	0.28
30.467	44456	0.28
30.470	44861	0.28
30.473	45181	0.28
30.477	45152	0.28
30.480	45055	0.28
30.483	44843	0.28
30.487	44497	0.28
30.490	44929	0.28
30.493	45214	0.28
30.497	45147	0.28
30.500	45223	0.28
30.503	45542	0.29
30.507	45512	0.29
30.510	45285	0.28
30.513	45369	0.29
30.517	45176	0.28
30.520	45427	0.29
30.523	45814	0.29
30.527	46742	0.29
30.530	47417	0.30
30.533	47505	0.30
30.537	47287	0.30
30.540	47435	0.30
30.543	47667	0.30
30.547	48049	0.30
30.550	47944	0.30
30.553	47682	0.30
30.557	47497	0.30
30.560	47282	0.30
30.563	47257	0.30
30.567	47479	0.30
30.570	47530	0.30
30.573	47111	0.30
30.577	46583	0.29
30.580	46670	0.29
30.583	46935	0.29
30.587	47036	0.30
30.590	47329	0.30
30.593	47333	0.30
30.597	47307	0.30
30.600	46805	0.29
30.603	47165	0.30
30.607	47693	0.30
30.610	47684	0.30
30.613	47134	0.30
30.617	46470	0.29
30.620	45999	0.29
30.623	46148	0.29
30.627	46130	0.29
30.630	46738	0.29
30.633	47452	0.30
30.637	47670	0.30
30.640	47284	0.30
30.643	47342	0.30
30.647	47597	0.30
30.650	47494	0.30
30.653	47679	0.30
30.657	48178	0.30
30.660	48022	0.30
30.663	47598	0.30
30.667	47446	0.30
30.670	47263	0.30
30.673	47277	0.30
30.677	47324	0.30
30.680	47419	0.30
30.683	47163	0.30
30.687	46966	0.30
30.690	46767	0.29
30.693	46734	0.29
30.697	46701	0.29
30.700	46876	0.29
30.703	47523	0.30
30.707	47435	0.30
30.710	47049	0.30
30.713	46903	0.29
30.717	47222	0.30
30.720	47527	0.30
30.723	47268	0.30
30.727	46831	0.29
30.730	46579	0.29
30.733	46641	0.29
30.737	46586	0.29
30.740	46566	0.29
30.743	46834	0.29
30.747	46855	0.29
30.750	46628	0.29
30.753	46706	0.29
30.757	46710	0.29
30.760	46675	0.29
30.763	46818	0.29
30.767	46983	0.30
30.770	46821	0.29
30.773	46824	0.29
30.777	46972	0.30
30.780	46702	0.29
30.783	46593	0.29
30.787	46741	0.29
30.790	47030	0.30
30.793	47015	0.30
30.797	46985	0.30
30.800	46957	0.30
30.803	46866	0.29
30.807	46731	0.29
30.810	46579	0.29
30.813	46541	0.29
30.817	46761	0.29
30.820	46721	0.29
30.823	46509	0.29
30.827	46566	0.29
30.830	46579	0.29
30.833	46557	0.29
30.837	46536	0.29
30.840	46596	0.29
30.843	46747	0.29
30.847	46681	0.29
30.850	46541	0.29
30.853	46611	0.29
30.857	46664	0.29
30.860	46540	0.29
30.863	46676	0.29
30.867	46916	0.29
30.870	46746	0.29
30.873	46641	0.29
30.877	46782	0.29
30.880	46840	0.29
30.883	46715	0.29
30.887	46650	0.29
30.890	46545	0.29
30.893	46506	0.29
30.897	46793	0.29
30.900	46903	0.29
30.903	46823	0.29
30.907	46792	0.29
30.910	46941	0.30
30.913	47125	0.30
30.917	47012	0.30
30.920	46732	0.29
30.923	46591	0.29
30.927	46876	0.29
30.930	46909	0.29
30.933	46624	0.29
30.937	46485	0.29
30.940	46621	0.29
30.943	46644	0.29
30.947	46834	0.29
30.950	47073	0.30
30.953	47249	0.30
30.957	46965	0.30
30.960	46652	0.29
30.963	46775	0.29
30.967	46576	0.29
30.970	45816	0.29
30.973	45618	0.29
30.977	45935	0.29
30.980	45981	0.29
30.983	45806	0.29
30.987	46185	0.29
30.990	46003	0.29
30.993	45670	0.29
30.997	45664	0.29
31.000	45380	0.29
31.003	44999	0.28
31.007	44735	0.28
31.010	44537	0.28
31.013	44846	0.28
31.017	45661	0.29
31.020	45568	0.29
31.023	44983	0.28
31.027	45752	0.29
31.030	46503	0.29
31.033	46816	0.29
31.037	46950	0.30
31.040	46692	0.29
31.043	45983	0.29
31.047	45605	0.29
31.050	45688	0.29
31.053	45913	0.29
31.057	45954	0.29
31.060	46557	0.29
31.063	46365	0.29
31.067	45790	0.29
31.070	46529	0.29
31.073	46915	0.29
31.077	46730	0.29
31.080	46959	0.30
31.083	47248	0.30
31.087	46668	0.29
31.090	45625	0.29
31.093	45858	0.29
31.097	46100	0.29
31.100	45757	0.29
31.103	45762	0.29
31.107	45737	0.29
31.110	45769	0.29
31.113	45693	0.29
31.117	46318	0.29
31.120	46814	0.29
31.123	47106	0.30
31.127	47068	0.30
31.130	46660	0.29
31.133	46070	0.29
31.137	45938	0.29
31.140	46200	0.29
31.143	46211	0.29
31.147	45904	0.29
31.150	45776	0.29
31.153	46019	0.29
31.157	46392	0.29
31.160	46407	0.29
31.163	46358	0.29
31.167	47114	0.30
31.170	47185	0.30
31.173	46610	0.29
31.177	45721	0.29
31.180	45733	0.29
31.183	46284	0.29
31.187	46458	0.29
31.190	46095	0.29
31.193	46062	0.29
31.197	46203	0.29
31.200	46445	0.29
31.203	46677	0.29
31.207	46408	0.29
31.210	46087	0.29
31.213	46334	0.29
31.217	46704	0.29
31.220	46655	0.29
31.223	46672	0.29
31.227	46679	0.29
31.230	46015	0.29
31.233	45938	0.29
31.237	46308	0.29
31.240	46545	0.29
31.243	46542	0.29
31.247	46783	0.29
31.250	46815	0.29
31.253	46437	0.29
31.257	46302	0.29
31.260	46258	0.29
31.263	46085	0.29
31.267	46252	0.29
31.270	46761	0.29
31.273	47471	0.30
31.277	48770	0.31
31.280	49388	0.31
31.283	48808	0.31
31.287	48149	0.30
31.290	48140	0.30
31.293	48524	0.30
31.297	48002	0.30
31.300	47485	0.30
31.303	47767	0.30
31.307	48004	0.30
31.310	47748	0.30
31.313	47940	0.30
31.317	48450	0.30
31.320	48797	0.31
31.323	48639	0.31
31.327	47983	0.30
31.330	47583	0.30
31.333	47154	0.30
31.337	47171	0.30
31.340	47268	0.30
31.343	47687	0.30
31.347	47878	0.30
31.350	47393	0.30
31.353	46855	0.29
31.357	47146	0.30
31.360	47497	0.30
31.363	47299	0.30
31.367	47116	0.30
31.370	47211	0.30
31.373	47795	0.30
31.377	47495	0.30
31.380	47507	0.30
31.383	47452	0.30
31.387	47504	0.30
31.390	48491	0.30
31.393	48217	0.30
31.397	47547	0.30
31.400	47434	0.30
31.403	47543	0.30
31.407	47605	0.30
31.410	47680	0.30
31.413	47654	0.30
31.417	47744	0.30
31.420	47861	0.30
31.423	47928	0.30
31.427	47905	0.30
31.430	47762	0.30
31.433	47769	0.30
31.437	47596	0.30
31.440	47450	0.30
31.443	47897	0.30
31.447	48491	0.30
31.450	49570	0.31
31.453	50054	0.31
31.457	50067	0.31
31.460	49226	0.31
31.463	49244	0.31
31.467	49492	0.31
31.470	49497	0.31
31.473	49522	0.31
31.477	49766	0.31
31.480	49647	0.31
31.483	49487	0.31
31.487	49461	0.31
31.490	49443	0.31
31.493	49535	0.31
31.497	49875	0.31
31.500	49671	0.31
31.503	48963	0.31
31.507	48302	0.30
31.510	49357	0.31
31.513	48923	0.31
31.517	47966	0.30
31.520	49057	0.31
31.523	49445	0.31
31.527	49305	0.31
31.530	49491	0.31
31.533	49906	0.31
31.537	49798	0.31
31.540	49670	0.31
31.543	49425	0.31
31.547	48877	0.31
31.550	48914	0.31
31.553	49485	0.31
31.557	49634	0.31
31.560	49563	0.31
31.563	49563	0.31
31.567	49557	0.31
31.570	49630	0.31
31.573	49983	0.31
31.577	49690	0.31
31.580	49226	0.31
31.583	49547	0.31
31.587	49578	0.31
31.590	49441	0.31
31.593	49549	0.31
31.597	49411	0.31
31.600	49138	0.31
31.603	48899	0.31
31.607	49193	0.31
31.610	49306	0.31
31.613	48558	0.31
31.617	48492	0.30
31.620	48971	0.31
31.623	49173	0.31
31.627	49298	0.31
31.630	49412	0.31
31.633	49347	0.31
31.637	49098	0.31
31.640	49358	0.31
31.643	49548	0.31
31.647	49268	0.31
31.650	49351	0.31
31.653	49782	0.31
31.657	49623	0.31
31.660	49007	0.31
31.663	48938	0.31
31.667	49531	0.31
31.670	49563	0.31
31.673	49351	0.31
31.677	49262	0.31
31.680	49332	0.31
31.683	49294	0.31
31.687	49310	0.31
31.690	49423	0.31
31.693	49396	0.31
31.697	49377	0.31
31.700	49533	0.31
31.703	49858	0.31
31.707	50199	0.32
31.710	49699	0.31
31.713	49266	0.31
31.717	49144	0.31
31.720	49173	0.31
31.723	49358	0.31
31.727	50758	0.32
31.730	51388	0.32
31.733	50585	0.32
31.737	49718	0.31
31.740	50306	0.32
31.743	50655	0.32
31.747	50577	0.32
31.750	50936	0.32
31.753	51307	0.32
31.757	51324	0.32
31.760	50720	0.32
31.763	50664	0.32
31.767	50749	0.32
31.770	51080	0.32
31.773	50948	0.32
31.777	50679	0.32
31.780	50868	0.32
31.783	50745	0.32
31.787	49831	0.31
31.790	49981	0.31
31.793	50893	0.32
31.797	50815	0.32
31.800	49615	0.31
31.803	49848	0.31
31.807	50672	0.32
31.810	51003	0.32
31.813	50872	0.32
31.817	50572	0.32
31.820	50359	0.32
31.823	50752	0.32
31.827	51059	0.32
31.830	51120	0.32
31.833	50958	0.32
31.837	51524	0.32
31.840	51794	0.33
31.843	51382	0.32
31.847	51531	0.32
31.850	51271	0.32
31.853	51252	0.32
31.857	51406	0.32
31.860	51777	0.33
31.863	51218	0.32
31.867	51079	0.32
31.870	51925	0.33
31.873	52356	0.33
31.877	52436	0.33
31.880	52835	0.33
31.883	52989	0.33
31.887	52777	0.33
31.890	52913	0.33
31.893	52953	0.33
31.897	52680	0.33
31.900	52822	0.33
31.903	52648	0.33
31.907	51630	0.32
31.910	51744	0.33
31.913	52578	0.33
31.917	52134	0.33
31.920	51344	0.32
31.923	51479	0.32
31.927	51738	0.33
31.930	51718	0.33
31.933	51644	0.32
31.937	51577	0.32
31.940	50967	0.32
31.943	50385	0.32
31.947	50721	0.32
31.950	51331	0.32
31.953	51120	0.32
31.957	50774	0.32
31.960	50662	0.32
31.963	50756	0.32
31.967	51751	0.33
31.970	52512	0.33
31.973	51771	0.33
31.977	51220	0.32
31.980	50938	0.32
31.983	50709	0.32
31.987	50699	0.32
31.990	51293	0.32
31.993	51881	0.33
31.997	51115	0.32
32.000	50664	0.32
32.003	50705	0.32
32.007	50555	0.32
32.010	50516	0.32
32.013	50551	0.32
32.017	50549	0.32
32.020	50291	0.32
32.023	50072	0.31
32.027	49939	0.31
32.030	50482	0.32
32.033	51092	0.32
32.037	51363	0.32
32.040	51704	0.32
32.043	52500	0.33
32.047	52779	0.33
32.050	51815	0.33
32.053	50924	0.32
32.057	51413	0.32
32.060	51733	0.33
32.063	51116	0.32
32.067	50385	0.32
32.070	49538	0.31
32.073	49416	0.31
32.077	50188	0.32
32.080	50250	0.32
32.083	49941	0.31
32.087	49602	0.31
32.090	50200	0.32
32.093	50287	0.32
32.097	50042	0.31
32.100	50139	0.32
32.103	50068	0.31
32.107	50285	0.32
32.110	50911	0.32
32.113	50974	0.32
32.117	50290	0.32
32.120	50422	0.32
32.123	50321	0.32
32.127	49944	0.31
32.130	49958	0.31
32.133	50158	0.32
32.137	50329	0.32
32.140	50086	0.31
32.143	50056	0.31
32.147	50382	0.32
32.150	50613	0.32
32.153	50782	0.32
32.157	51312	0.32
32.160	51493	0.32
32.163	50579	0.32
32.167	50288	0.32
32.170	50045	0.31
32.173	49776	0.31
32.177	49939	0.31
32.180	49761	0.31
32.183	49389	0.31
32.187	49892	0.31
32.190	50246	0.32
32.193	49805	0.31
32.197	49629	0.31
32.200	49934	0.31
32.203	50077	0.31
32.207	50098	0.31
32.210	49973	0.31
32.213	50036	0.31
32.217	50014	0.31
32.220	50170	0.32
32.223	50062	0.31
32.227	49555	0.31
32.230	49511	0.31
32.233	50100	0.31
32.237	50258	0.32
32.240	49840	0.31
32.243	49964	0.31
32.247	49499	0.31
32.250	49067	0.31
32.253	49636	0.31
32.257	50162	0.32
32.260	50109	0.31
32.263	50136	0.32
32.267	50107	0.31
32.270	49939	0.31
32.273	49975	0.31
32.277	50186	0.32
32.280	50364	0.32
32.283	50207	0.32
32.287	50156	0.32
32.290	50154	0.32
32.293	50233	0.32
32.297	50266	0.32
32.300	50215	0.32
32.303	50025	0.31
32.307	49770	0.31
32.310	49859	0.31
32.313	50185	0.32
32.317	50416	0.32
32.320	50740	0.32
32.323	50346	0.32
32.327	49847	0.31
32.330	49721	0.31
32.333	49655	0.31
32.337	49477	0.31
32.340	48661	0.31
32.343	49156	0.31
32.347	50153	0.32
32.350	50490	0.32
32.353	50384	0.32
32.357	49647	0.31
32.360	49239	0.31
32.363	49278	0.31
32.367	49249	0.31
32.370	48849	0.31
32.373	49124	0.31
32.377	49439	0.31
32.380	49708	0.31
32.383	50022	0.31
32.387	49900	0.31
32.390	50006	0.31
32.393	50226	0.32
32.397	49921	0.31
32.400	49807	0.31
32.403	50665	0.32
32.407	51046	0.32
32.410	50899	0.32
32.413	50606	0.32
32.417	49922	0.31
32.420	49513	0.31
32.423	49699	0.31
32.427	50285	0.32
32.430	51049	0.32
32.433	51315	0.32
32.437	51167	0.32
32.440	51496	0.32
32.443	51461	0.32
32.447	51451	0.32
32.450	51984	0.33
32.453	51979	0.33
32.457	51902	0.33
32.460	52278	0.33
32.463	52537	0.33
32.467	52010	0.33
32.470	51741	0.33
32.473	51737	0.33
32.477	51570	0.32
32.480	51311	0.32
32.483	51484	0.32
32.487	51783	0.33
32.490	51564	0.32
32.493	51034	0.32
32.497	51143	0.32
32.500	51567	0.32
32.503	51823	0.33
32.507	51625	0.32
32.510	51290	0.32
32.513	51090	0.32
32.517	51452	0.32
32.520	51725	0.33
32.523	51329	0.32
32.527	51261	0.32
32.530	51377	0.32
32.533	50852	0.32
32.537	50344	0.32
32.540	50922	0.32
32.543	50332	0.32
32.547	49993	0.31
32.550	50934	0.32
32.553	51187	0.32
32.557	50591	0.32
32.560	50476	0.32
32.563	50589	0.32
32.567	49777	0.31
32.570	49941	0.31
32.573	50774	0.32
32.577	51134	0.32
32.580	51025	0.32
32.583	51288	0.32
32.587	51664	0.32
32.590	51760	0.33
32.593	51937	0.33
32.597	51653	0.32
32.600	51572	0.32
32.603	51218	0.32
32.607	50919	0.32
32.610	50834	0.32
32.613	50846	0.32
32.617	50540	0.32
32.620	50183	0.32
32.623	50358	0.32
32.627	50706	0.32
32.630	50697	0.32
32.633	50645	0.32
32.637	51018	0.32
32.640	51588	0.32
32.643	51506	0.32
32.647	51112	0.32
32.650	51108	0.32
32.653	51255	0.32
32.657	51343	0.32
32.660	51068	0.32
32.663	50814	0.32
32.667	51158	0.32
32.670	51344	0.32
32.673	51103	0.32
32.677	51016	0.32
32.680	50920	0.32
32.683	51132	0.32
32.687	51622	0.32
32.690	51769	0.33
32.693	51514	0.32
32.697	51227	0.32
32.700	50968	0.32
32.703	50753	0.32
32.707	51071	0.32
32.710	51325	0.32
32.713	51197	0.32
32.717	51214	0.32
32.720	51171	0.32
32.723	50994	0.32
32.727	50850	0.32
32.730	49923	0.31
32.733	49091	0.31
32.737	49064	0.31
32.740	49289	0.31
32.743	49139	0.31
32.747	48866	0.31
32.750	49364	0.31
32.753	49716	0.31
32.757	49245	0.31
32.760	49480	0.31
32.763	49806	0.31
32.767	50542	0.32
32.770	51593	0.32
32.773	51935	0.33
32.777	51623	0.32
32.780	51140	0.32
32.783	50462	0.32
32.787	49736	0.31
32.790	49638	0.31
32.793	49283	0.31
32.797	49043	0.31
32.800	49246	0.31
32.803	49715	0.31
32.807	49909	0.31
32.810	49954	0.31
32.813	49892	0.31
32.817	50133	0.32
32.820	50063	0.31
32.823	50071	0.31
32.827	49984	0.31
32.830	49988	0.31
32.833	49989	0.31
32.837	49280	0.31
32.840	49444	0.31
32.843	49218	0.31
32.847	49453	0.31
32.850	49670	0.31
32.853	50077	0.31
32.857	50325	0.32
32.860	50222	0.32
32.863	49848	0.31
32.867	49557	0.31
32.870	50031	0.31
32.873	50697	0.32
32.877	50922	0.32
32.880	50324	0.32
32.883	49677	0.31
32.887	49384	0.31
32.890	49856	0.31
32.893	50241	0.32
32.897	50151	0.32
32.900	49975	0.31
32.903	50047	0.31
32.907	50087	0.31
32.910	50089	0.31
32.913	49722	0.31
32.917	49751	0.31
32.920	51211	0.32
32.923	52025	0.33
32.927	51465	0.32
32.930	50737	0.32
32.933	50387	0.32
32.937	50498	0.32
32.940	51455	0.32
32.943	51906	0.33
32.947	51771	0.33
32.950	51020	0.32
32.953	50853	0.32
32.957	51596	0.32
32.960	51994	0.33
32.963	51888	0.33
32.967	51640	0.32
32.970	51940	0.33
32.973	52079	0.33
32.977	51868	0.33
32.980	50871	0.32
32.983	50978	0.32
32.987	51442	0.32
32.990	51907	0.33
32.993	51175	0.32
32.997	50495	0.32
33.000	50962	0.32
33.003	51787	0.33
33.007	52067	0.33
33.010	51751	0.33
33.013	51078	0.32
33.017	51216	0.32
33.020	51663	0.32
33.023	51644	0.32
33.027	51418	0.32
33.030	51932	0.33
33.033	52367	0.33
33.037	52250	0.33
33.040	52170	0.33
33.043	52162	0.33
33.047	52092	0.33
33.050	51236	0.32
33.053	50564	0.32
33.057	50463	0.32
33.060	50386	0.32
33.063	50808	0.32
33.067	51258	0.32
33.070	50755	0.32
33.073	50808	0.32
33.077	51704	0.32
33.080	51798	0.33
33.083	51371	0.32
33.087	51373	0.32
33.090	52181	0.33
33.093	52379	0.33
33.097	52602	0.33
33.100	53279	0.33
33.103	53116	0.33
33.107	52538	0.33
33.110	52526	0.33
33.113	52654	0.33
33.117	52388	0.33
33.120	52111	0.33
33.123	52513	0.33
33.127	52634	0.33
33.130	52431	0.33
33.133	52414	0.33
33.137	52437	0.33
33.140	52192	0.33
33.143	52208	0.33
33.147	52380	0.33
33.150	52322	0.33
33.153	52298	0.33
33.157	52404	0.33
33.160	52460	0.33
33.163	52382	0.33
33.167	52546	0.33
33.170	52471	0.33
33.173	52314	0.33
33.177	52307	0.33
33.180	52573	0.33
33.183	52697	0.33
33.187	52707	0.33
33.190	52549	0.33
33.193	52309	0.33
33.197	52220	0.33
33.200	52244	0.33
33.203	52312	0.33
33.207	52560	0.33
33.210	52804	0.33
33.213	52695	0.33
33.217	52449	0.33
33.220	52221	0.33
33.223	52194	0.33
33.227	51951	0.33
33.230	51832	0.33
33.233	51800	0.33
33.237	52029	0.33
33.240	52390	0.33
33.243	52398	0.33
33.247	52062	0.33
33.250	51728	0.33
33.253	52002	0.33
33.257	52387	0.33
33.260	51692	0.32
33.263	51649	0.32
33.267	52097	0.33
33.270	52121	0.33
33.273	51990	0.33
33.277	52560	0.33
33.280	52881	0.33
33.283	52698	0.33
33.287	52613	0.33
33.290	52366	0.33
33.293	51594	0.32
33.297	51645	0.32
33.300	52200	0.33
33.303	52426	0.33
33.307	52458	0.33
33.310	52454	0.33
33.313	52345	0.33
33.317	52459	0.33
33.320	52834	0.33
33.323	52889	0.33
33.327	52485	0.33
33.330	52113	0.33
33.333	52153	0.33
33.337	52393	0.33
33.340	52576	0.33
33.343	52284	0.33
33.347	52063	0.33
33.350	52344	0.33
33.353	52918	0.33
33.357	53345	0.34
33.360	53341	0.34
33.363	53186	0.33
33.367	52623	0.33
33.370	52177	0.33
33.373	52619	0.33
33.377	52870	0.33
33.380	52757	0.33
33.383	52911	0.33
33.387	53007	0.33
33.390	52560	0.33
33.393	52820	0.33
33.397	53527	0.34
33.400	53191	0.33
33.403	52303	0.33
33.407	52063	0.33
33.410	52108	0.33
33.413	52377	0.33
33.417	52561	0.33
33.420	52867	0.33
33.423	53028	0.33
33.427	52566	0.33
33.430	52309	0.33
33.433	52273	0.33
33.437	52594	0.33
33.440	52692	0.33
33.443	52920	0.33
33.447	53155	0.33
33.450	52929	0.33
33.453	52483	0.33
33.457	52000	0.33
33.460	52116	0.33
33.463	52460	0.33
33.467	51986	0.33
33.470	51826	0.33
33.473	52492	0.33
33.477	52537	0.33
33.480	52687	0.33
33.483	53294	0.33
33.487	52794	0.33
33.490	52415	0.33
33.493	53027	0.33
33.497	53048	0.33
33.500	52658	0.33
33.503	52424	0.33
33.507	52159	0.33
33.510	51956	0.33
33.513	51854	0.33
33.517	51993	0.33
33.520	52367	0.33
33.523	52308	0.33
33.527	52015	0.33
33.530	51936	0.33
33.533	51837	0.33
33.537	51923	0.33
33.540	52493	0.33
33.543	53515	0.34
33.547	54174	0.34
33.550	54390	0.34
33.553	54252	0.34
33.557	54409	0.34
33.560	54581	0.34
33.563	54927	0.35
33.567	54586	0.34
33.570	54159	0.34
33.573	54148	0.34
33.577	53920	0.34
33.580	53608	0.34
33.583	54145	0.34
33.587	54288	0.34
33.590	53962	0.34
33.593	53682	0.34
33.597	54375	0.34
33.600	54470	0.34
33.603	54307	0.34
33.607	54281	0.34
33.610	54769	0.34
33.613	54918	0.35
33.617	54866	0.34
33.620	54682	0.34
33.623	54228	0.34
33.627	54813	0.34
33.630	54694	0.34
33.633	52914	0.33
33.637	51676	0.32
33.640	51578	0.32
33.643	51491	0.32
33.647	51278	0.32
33.650	51370	0.32
33.653	51493	0.32
33.657	51633	0.32
33.660	52503	0.33
33.663	53480	0.34
33.667	53316	0.34
33.670	53123	0.33
33.673	52896	0.33
33.677	52090	0.33
33.680	51758	0.33
33.683	52116	0.33
33.687	51843	0.33
33.690	51762	0.33
33.693	52059	0.33
33.697	51962	0.33
33.700	52144	0.33
33.703	52508	0.33
33.707	52262	0.33
33.710	52025	0.33
33.713	52311	0.33
33.717	52849	0.33
33.720	53282	0.33
33.723	52948	0.33
33.727	52839	0.33
33.730	52789	0.33
33.733	52886	0.33
33.737	52598	0.33
33.740	52252	0.33
33.743	51980	0.33
33.747	52130	0.33
33.750	51860	0.33
33.753	51426	0.32
33.757	51845	0.33
33.760	52503	0.33
33.763	52829	0.33
33.767	53129	0.33
33.770	53158	0.33
33.773	53058	0.33
33.777	52725	0.33
33.780	52608	0.33
33.783	52947	0.33
33.787	52901	0.33
33.790	52725	0.33
33.793	52752	0.33
33.797	52310	0.33
33.800	52613	0.33
33.803	53060	0.33
33.807	53047	0.33
33.810	53012	0.33
33.813	53057	0.33
33.817	53095	0.33
33.820	53031	0.33
33.823	52968	0.33
33.827	52660	0.33
33.830	52560	0.33
33.833	52873	0.33
33.837	52755	0.33
33.840	52452	0.33
33.843	52111	0.33
33.847	52722	0.33
33.850	53096	0.33
33.853	52879	0.33
33.857	52878	0.33
33.860	52877	0.33
33.863	52895	0.33
33.867	53181	0.33
33.870	53465	0.34
33.873	53219	0.33
33.877	53778	0.34
33.880	54400	0.34
33.883	53945	0.34
33.887	53457	0.34
33.890	53660	0.34
33.893	53493	0.34
33.897	53325	0.34
33.900	53075	0.33
33.903	53082	0.33
33.907	53117	0.33
33.910	53398	0.34
33.913	53528	0.34
33.917	53250	0.33
33.920	53193	0.33
33.923	53705	0.34
33.927	53567	0.34
33.930	53334	0.34
33.933	53128	0.33
33.937	53017	0.33
33.940	53230	0.33
33.943	53340	0.34
33.947	53474	0.34
33.950	53328	0.34
33.953	53085	0.33
33.957	52896	0.33
33.960	53344	0.34
33.963	53280	0.33
33.967	53086	0.33
33.970	52915	0.33
33.973	53451	0.34
33.977	53824	0.34
33.980	53533	0.34
33.983	52992	0.33
33.987	53126	0.33
33.990	53175	0.33
33.993	52802	0.33
33.997	52778	0.33
34.000	52939	0.33
34.003	52761	0.33
34.007	53013	0.33
34.010	54207	0.34
34.013	54612	0.34
34.017	54127	0.34
34.020	54159	0.34
34.023	54283	0.34
34.027	54067	0.34
34.030	54042	0.34
34.033	54452	0.34
34.037	54443	0.34
34.040	53966	0.34
34.043	53686	0.34
34.047	53909	0.34
34.050	53945	0.34
34.053	54097	0.34
34.057	54773	0.34
34.060	54839	0.34
34.063	54815	0.34
34.067	54946	0.35
34.070	54337	0.34
34.073	53954	0.34
34.077	54122	0.34
34.080	54460	0.34
34.083	54329	0.34
34.087	54480	0.34
34.090	54618	0.34
34.093	54653	0.34
34.097	55072	0.35
34.100	55163	0.35
34.103	55023	0.35
34.107	55454	0.35
34.110	55876	0.35
34.113	55193	0.35
34.117	54529	0.34
34.120	54497	0.34
34.123	54906	0.35
34.127	55151	0.35
34.130	54239	0.34
34.133	54266	0.34
34.137	54390	0.34
34.140	54466	0.34
34.143	54300	0.34
34.147	54129	0.34
34.150	54503	0.34
34.153	55124	0.35
34.157	55140	0.35
34.160	55046	0.35
34.163	54748	0.34
34.167	53970	0.34
34.170	53406	0.34
34.173	52809	0.33
34.177	53603	0.34
34.180	53591	0.34
34.183	53297	0.33
34.187	54071	0.34
34.190	53598	0.34
34.193	53431	0.34
34.197	54641	0.34
34.200	55127	0.35
34.203	55204	0.35
34.207	55158	0.35
34.210	55156	0.35
34.213	54843	0.34
34.217	54245	0.34
34.220	54815	0.34
34.223	54738	0.34
34.227	53928	0.34
34.230	53312	0.34
34.233	52980	0.33
34.237	52603	0.33
34.240	52496	0.33
34.243	52727	0.33
34.247	52999	0.33
34.250	53063	0.33
34.253	53235	0.33
34.257	53276	0.33
34.260	52767	0.33
34.263	53037	0.33
34.267	52846	0.33
34.270	52790	0.33
34.273	53020	0.33
34.277	53083	0.33
34.280	52779	0.33
34.283	52738	0.33
34.287	52620	0.33
34.290	52561	0.33
34.293	52693	0.33
34.297	52844	0.33
34.300	52703	0.33
34.303	52760	0.33
34.307	52672	0.33
34.310	52509	0.33
34.313	52631	0.33
34.317	52690	0.33
34.320	52740	0.33
34.323	52626	0.33
34.327	52749	0.33
34.330	52937	0.33
34.333	52568	0.33
34.337	52296	0.33
34.340	52278	0.33
34.343	51993	0.33
34.347	52191	0.33
34.350	52927	0.33
34.353	52928	0.33
34.357	52851	0.33
34.360	52572	0.33
34.363	52199	0.33
34.367	52287	0.33
34.370	52764	0.33
34.373	53169	0.33
34.377	52834	0.33
34.380	52486	0.33
34.383	52833	0.33
34.387	52975	0.33
34.390	52900	0.33
34.393	53490	0.34
34.397	53800	0.34
34.400	53457	0.34
34.403	53363	0.34
34.407	53277	0.33
34.410	52891	0.33
34.413	53122	0.33
34.417	53542	0.34
34.420	53520	0.34
34.423	53467	0.34
34.427	52991	0.33
34.430	52874	0.33
34.433	52944	0.33
34.437	52943	0.33
34.440	52989	0.33
34.443	52800	0.33
34.447	52704	0.33
34.450	52376	0.33
34.453	51647	0.32
34.457	51530	0.32
34.460	51426	0.32
34.463	51570	0.32
34.467	51787	0.33
34.470	51836	0.33
34.473	51305	0.32
34.477	51439	0.32
34.480	52586	0.33
34.483	52395	0.33
34.487	51565	0.32
34.490	51467	0.32
34.493	51663	0.32
34.497	51640	0.32
34.500	51521	0.32
34.503	51650	0.32
34.507	51557	0.32
34.510	51562	0.32
34.513	51588	0.32
34.517	51615	0.32
34.520	51640	0.32
34.523	51923	0.33
34.527	52062	0.33
34.530	51802	0.33
34.533	51840	0.33
34.537	52165	0.33
34.540	51793	0.33
34.543	51584	0.32
34.547	51557	0.32
34.550	51618	0.32
34.553	51636	0.32
34.557	51621	0.32
34.560	51573	0.32
34.563	51270	0.32
34.567	51342	0.32
34.570	51815	0.33
34.573	51960	0.33
34.577	51793	0.33
34.580	51720	0.33
34.583	51563	0.32
34.587	51476	0.32
34.590	51694	0.32
34.593	51640	0.32
34.597	50992	0.32
34.600	51564	0.32
34.603	51870	0.33
34.607	51909	0.33
34.610	51750	0.33
34.613	51775	0.33
34.617	51548	0.32
34.620	50507	0.32
34.623	50173	0.32
34.627	50411	0.32
34.630	51152	0.32
34.633	51311	0.32
34.637	51636	0.32
34.640	51204	0.32
34.643	50337	0.32
34.647	50112	0.31
34.650	50498	0.32
34.653	49896	0.31
34.657	49736	0.31
34.660	50691	0.32
34.663	51275	0.32
34.667	50521	0.32
34.670	49905	0.31
34.673	49944	0.31
34.677	50337	0.32
34.680	50163	0.32
34.683	49769	0.31
34.687	49919	0.31
34.690	51319	0.32
34.693	52544	0.33
34.697	52743	0.33
34.700	52231	0.33
34.703	52074	0.33
34.707	52163	0.33
34.710	52124	0.33
34.713	52044	0.33
34.717	52028	0.33
34.720	52363	0.33
34.723	52699	0.33
34.727	52176	0.33
34.730	52132	0.33
34.733	52545	0.33
34.737	53063	0.33
34.740	53169	0.33
34.743	52618	0.33
34.747	52227	0.33
34.750	52267	0.33
34.753	52231	0.33
34.757	52171	0.33
34.760	52353	0.33
34.763	52800	0.33
34.767	53126	0.33
34.770	53145	0.33
34.773	52682	0.33
34.777	52318	0.33
34.780	52669	0.33
34.783	53196	0.33
34.787	53136	0.33
34.790	52773	0.33
34.793	52861	0.33
34.797	53539	0.34
34.800	53918	0.34
34.803	53783	0.34
34.807	53349	0.34
34.810	52679	0.33
34.813	52371	0.33
34.817	52419	0.33
34.820	52846	0.33
34.823	53162	0.33
34.827	52934	0.33
34.830	52488	0.33
34.833	52521	0.33
34.837	52810	0.33
34.840	52624	0.33
34.843	52648	0.33
34.847	52443	0.33
34.850	52498	0.33
34.853	52577	0.33
34.857	52412	0.33
34.860	52453	0.33
34.863	53185	0.33
34.867	53468	0.34
34.870	53252	0.33
34.873	53172	0.33
34.877	52969	0.33
34.880	52763	0.33
34.883	53296	0.33
34.887	53733	0.34
34.890	53481	0.34
34.893	53523	0.34
34.897	53270	0.33
34.900	52909	0.33
34.903	52963	0.33
34.907	52966	0.33
34.910	53499	0.34
34.913	53900	0.34
34.917	53916	0.34
34.920	53209	0.33
34.923	52995	0.33
34.927	52790	0.33
34.930	52873	0.33
34.933	53812	0.34
34.937	53777	0.34
34.940	53017	0.33
34.943	52885	0.33
34.947	52496	0.33
34.950	52944	0.33
34.953	53465	0.34
34.957	54045	0.34
34.960	54037	0.34
34.963	53911	0.34
34.967	53648	0.34
34.970	53209	0.33
34.973	53288	0.33
34.977	53712	0.34
34.980	53739	0.34
34.983	53644	0.34
34.987	53194	0.33
34.990	52981	0.33
34.993	53237	0.33
34.997	52921	0.33

